Data from Cr-1ng_USB2E8911_003.txt Node
Date: Tue May 14 14:25:19 PDT 2019
User: admin
Spectrometer: USB2E891
Trigger mode: 1
Integration Time (sec): 1.000000E-1
Scans to average: 1
Electric dark correction enabled: true
Nonlinearity correction enabled: false
Boxcar width: 0
XAxis mode: Wavelengths
Number of Pixels in Spectrum: 2048
>>>>>Begin Spectral Data<<<<<
183.106	-231.61
183.502	5.39
183.898	9.39
184.293	7.39
184.689	13.39
185.085	7.39
185.48	8.39
185.876	13.39
186.271	12.39
186.667	11.39
187.062	17.39
187.457	17.39
187.853	21.39
188.248	22.39
188.643	21.39
189.039	9.39
189.434	15.39
189.829	18.39
190.224	18.39
190.619	15.39
191.014	14.39
191.409	13.39
191.805	8.39
192.199	16.39
192.594	24.39
192.989	11.39
193.384	17.39
193.779	19.39
194.174	17.39
194.569	17.39
194.964	19.39
195.358	20.39
195.753	15.39
196.148	18.39
196.542	23.39
196.937	26.39
197.331	19.39
197.726	26.39
198.12	16.39
198.515	22.39
198.909	18.39
199.304	22.39
199.698	19.39
200.092	15.39
200.487	22.39
200.881	23.39
201.275	28.39
201.669	23.39
202.063	31.39
202.458	22.39
202.852	31.39
203.246	32.39
203.64	21.39
204.034	23.39
204.428	22.39
204.822	19.39
205.216	19.39
205.609	25.39
206.003	29.39
206.397	21.39
206.791	31.39
207.184	23.39
207.578	20.39
207.972	27.39
208.365	27.39
208.759	25.39
209.153	31.39
209.546	31.39
209.94	32.39
210.333	25.39
210.726	22.39
211.12	31.39
211.513	30.39
211.906	33.39
212.3	26.39
212.693	25.39
213.086	24.39
213.479	25.39
213.873	25.39
214.266	28.39
214.659	34.39
215.052	25.39
215.445	29.39
215.838	27.39
216.231	31.39
216.624	31.39
217.016	32.39
217.409	33.39
217.802	31.39
218.195	24.39
218.588	31.39
218.98	37.39
219.373	31.39
219.766	31.39
220.158	42.39
220.551	31.39
220.943	39.39
221.336	35.39
221.728	34.39
222.121	34.39
222.513	35.39
222.906	41.39
223.298	40.39
223.69	44.39
224.082	32.39
224.475	46.39
224.867	52.39
225.259	48.39
225.651	48.39
226.043	45.39
226.435	47.39
226.827	47.39
227.219	45.39
227.611	41.39
228.003	33.39
228.395	38.39
228.787	43.39
229.179	45.39
229.57	37.39
229.962	50.39
230.354	51.39
230.746	47.39
231.137	43.39
231.529	53.39
231.92	48.39
232.312	49.39
232.703	55.39
233.095	58.39
233.486	48.39
233.878	50.39
234.269	44.39
234.66	48.39
235.052	32.39
235.443	42.39
235.834	51.39
236.225	53.39
236.616	60.39
237.008	60.39
237.399	57.39
237.79	53.39
238.181	55.39
238.572	60.39
238.963	84.39
239.354	88.39
239.744	123.39
240.135	95.39
240.526	74.39
240.917	64.39
241.308	74.39
241.698	62.39
242.089	75.39
242.48	71.39
242.87	88.39
243.261	83.39
243.651	81.39
244.042	73.39
244.432	79.39
244.823	97.39
245.213	99.39
245.603	103.39
245.994	102.39
246.384	99.39
246.774	117.39
247.164	105.39
247.555	121.39
247.945	140.39
248.335	166.39
248.725	157.39
249.115	165.39
249.505	135.39
249.895	127.39
250.285	102.39
250.675	111.39
251.065	116.39
251.454	127.39
251.844	143.39
252.234	147.39
252.624	122.39
253.013	108.39
253.403	94.39
253.793	95.39
254.182	100.39
254.572	134.39
254.961	173.39
255.351	204.39
255.74	169.39
256.13	143.39
256.519	148.39
256.908	171.39
257.298	182.39
257.687	160.39
258.076	166.39
258.465	137.39
258.854	127.39
259.243	112.39
259.633	122.39
260.022	149.39
260.411	182.39
260.8	167.39
261.188	150.39
261.577	154.39
261.966	134.39
262.355	131.39
262.744	127.39
263.133	127.39
263.521	132.39
263.91	114.39
264.299	117.39
264.687	149.39
265.076	181.39
265.464	221.39
265.853	250.39
266.241	234.39
266.63	175.39
267.018	170.39
267.407	165.39
267.795	176.39
268.183	180.39
268.571	156.39
268.96	125.39
269.348	190.39
269.736	241.39
270.124	261.39
270.512	228.39
270.9	184.39
271.288	217.39
271.676	270.39
272.064	287.39
272.452	230.39
272.84	172.39
273.228	93.39
273.616	94.39
274.003	109.39
274.391	117.39
274.779	120.39
275.166	127.39
275.554	125.39
275.941	194.39
276.329	243.39
276.717	259.39
277.104	233.39
277.491	225.39
277.879	185.39
278.266	134.39
278.653	157.39
279.041	176.39
279.428	210.39
279.815	209.39
280.202	211.39
280.589	154.39
280.977	132.39
281.364	114.39
281.751	140.39
282.138	161.39
282.525	172.39
282.912	240.39
283.298	252.39
283.685	199.39
284.072	164.39
284.459	180.39
284.846	186.39
285.232	181.39
285.619	175.39
286.006	170.39
286.392	187.39
286.779	184.39
287.165	166.39
287.552	230.39
287.938	257.39
288.325	228.39
288.711	147.39
289.097	156.39
289.484	194.39
289.87	180.39
290.256	131.39
290.642	131.39
291.028	148.39
291.414	159.39
291.801	151.39
292.187	165.39
292.573	144.39
292.959	168.39
293.344	206.39
293.73	266.39
294.116	337.39
294.502	403.39
294.888	308.39
295.274	173.39
295.659	116.39
296.045	123.39
296.431	134.39
296.816	145.39
297.202	152.39
297.587	177.39
297.973	173.39
298.358	170.39
298.744	133.39
299.129	176.39
299.514	189.39
299.9	160.39
300.285	116.39
300.67	140.39
301.055	182.39
301.44	231.39
301.825	241.39
302.211	264.39
302.596	208.39
302.981	175.39
303.366	143.39
303.75	168.39
304.135	220.39
304.52	272.39
304.905	278.39
305.29	215.39
305.675	114.39
306.059	117.39
306.444	134.39
306.829	157.39
307.213	169.39
307.598	177.39
307.982	156.39
308.367	143.39
308.751	129.39
309.135	151.39
309.52	141.39
309.904	129.39
310.288	138.39
310.673	137.39
311.057	136.39
311.441	131.39
311.825	129.39
312.209	126.39
312.593	128.39
312.977	122.39
313.361	123.39
313.745	135.39
314.129	139.39
314.513	169.39
314.897	182.39
315.281	182.39
315.665	159.39
316.048	152.39
316.432	167.39
316.816	143.39
317.199	175.39
317.583	227.39
317.966	229.39
318.35	208.39
318.733	171.39
319.117	163.39
319.5	187.39
319.884	209.39
320.267	239.39
320.65	266.39
321.033	287.39
321.417	295.39
321.8	261.39
322.183	176.39
322.566	144.39
322.949	156.39
323.332	172.39
323.715	194.39
324.098	217.39
324.481	275.39
324.864	279.39
325.246	230.39
325.629	167.39
326.012	160.39
326.395	178.39
326.777	205.39
327.16	217.39
327.543	195.39
327.925	161.39
328.308	157.39
328.69	143.39
329.073	159.39
329.455	194.39
329.837	225.39
330.22	212.39
330.602	201.39
330.984	181.39
331.366	200.39
331.748	169.39
332.131	182.39
332.513	205.39
332.895	204.39
333.277	215.39
333.659	232.39
334.041	298.39
334.423	281.39
334.804	228.39
335.186	174.39
335.568	183.39
335.95	192.39
336.332	182.39
336.713	174.39
337.095	218.39
337.476	247.39
337.858	226.39
338.239	164.39
338.621	147.39
339.002	133.39
339.384	139.39
339.765	170.39
340.146	185.39
340.528	182.39
340.909	192.39
341.29	205.39
341.671	181.39
342.053	175.39
342.434	149.39
342.815	150.39
343.196	148.39
343.577	144.39
343.958	164.39
344.338	165.39
344.719	162.39
345.1	161.39
345.481	158.39
345.862	167.39
346.242	160.39
346.623	140.39
347.004	131.39
347.384	137.39
347.765	142.39
348.145	162.39
348.526	181.39
348.906	200.39
349.287	221.39
349.667	182.39
350.047	148.39
350.428	160.39
350.808	171.39
351.188	173.39
351.568	147.39
351.948	148.39
352.328	175.39
352.708	180.39
353.088	167.39
353.468	180.39
353.848	179.39
354.228	214.39
354.608	228.39
354.988	204.39
355.368	178.39
355.747	164.39
356.127	171.39
356.507	207.39
356.886	266.39
357.266	282.39
357.645	224.39
358.025	191.39
358.404	177.39
358.784	220.39
359.163	214.39
359.542	195.39
359.922	152.39
360.301	171.39
360.68	211.39
361.059	301.39
361.439	416.39
361.818	405.39
362.197	289.39
362.576	213.39
362.955	188.39
363.334	188.39
363.713	236.39
364.091	259.39
364.47	246.39
364.849	186.39
365.228	178.39
365.606	182.39
365.985	170.39
366.364	149.39
366.742	137.39
367.121	138.39
367.499	173.39
367.878	210.39
368.256	236.39
368.635	232.39
369.013	203.39
369.391	161.39
369.77	141.39
370.148	205.39
370.526	250.39
370.904	259.39
371.282	220.39
371.66	195.39
372.038	157.39
372.416	140.39
372.794	136.39
373.172	164.39
373.55	165.39
373.928	187.39
374.306	160.39
374.683	169.39
375.061	215.39
375.439	259.39
375.816	315.39
376.194	329.39
376.572	328.39
376.949	333.39
377.327	327.39
377.704	333.39
378.081	317.39
378.459	266.39
378.836	231.39
379.213	215.39
379.591	247.39
379.968	243.39
380.345	263.39
380.722	300.39
381.099	366.39
381.476	405.39
381.853	394.39
382.23	363.39
382.607	351.39
382.984	412.39
383.361	474.39
383.738	513.39
384.114	497.39
384.491	491.39
384.868	499.39
385.244	456.39
385.621	462.39
385.997	499.39
386.374	606.39
386.75	660.39
387.127	610.39
387.503	552.39
387.88	509.39
388.256	462.39
388.632	342.39
389.008	237.39
389.385	189.39
389.761	197.39
390.137	187.39
390.513	169.39
390.889	161.39
391.265	158.39
391.641	140.39
392.017	159.39
392.393	201.39
392.768	336.39
393.144	479.39
393.52	480.39
393.896	350.39
394.271	259.39
394.647	222.39
395.022	254.39
395.398	243.39
395.773	239.39
396.149	275.39
396.524	342.39
396.9	357.39
397.275	282.39
397.65	249.39
398.026	278.39
398.401	246.39
398.776	206.39
399.151	212.39
399.526	221.39
399.901	270.39
400.276	507.39
400.651	805.39
401.026	931.39
401.401	810.39
401.776	523.39
402.151	333.39
402.525	216.39
402.9	193.39
403.275	212.39
403.649	243.39
404.024	306.39
404.399	348.39
404.773	322.39
405.148	227.39
405.522	185.39
405.896	197.39
406.271	270.39
406.645	500.39
407.019	793.39
407.393	844.39
407.768	682.39
408.142	410.39
408.516	301.39
408.89	228.39
409.264	212.39
409.638	276.39
410.012	359.39
410.386	361.39
410.76	296.39
411.133	262.39
411.507	252.39
411.881	227.39
412.255	239.39
412.628	216.39
413.002	244.39
413.375	268.39
413.749	295.39
414.122	276.39
414.496	240.39
414.869	214.39
415.243	200.39
415.616	188.39
415.989	199.39
416.363	198.39
416.736	251.39
417.109	268.39
417.482	237.39
417.855	214.39
418.228	194.39
418.601	158.39
418.974	141.39
419.347	141.39
419.72	142.39
420.093	160.39
420.465	180.39
420.838	184.39
421.211	174.39
421.583	183.39
421.956	199.39
422.329	223.39
422.701	208.39
423.074	196.39
423.446	203.39
423.818	238.39
424.191	273.39
424.563	256.39
424.935	210.39
425.308	214.39
425.68	240.39
426.052	283.39
426.424	369.39
426.796	443.39
427.168	462.39
427.54	356.39
427.912	308.39
428.284	264.39
428.656	345.39
429.028	638.39
429.399	828.39
429.771	890.39
430.143	707.39
430.514	556.39
430.886	366.39
431.258	258.39
431.629	180.39
432.001	150.39
432.372	138.39
432.743	158.39
433.115	155.39
433.486	150.39
433.857	156.39
434.229	185.39
434.6	196.39
434.971	202.39
435.342	168.39
435.713	159.39
436.084	185.39
436.455	159.39
436.826	157.39
437.197	151.39
437.568	137.39
437.939	145.39
438.309	150.39
438.68	142.39
439.051	141.39
439.421	133.39
439.792	126.39
440.163	141.39
440.533	157.39
440.903	163.39
441.274	158.39
441.644	163.39
442.015	153.39
442.385	157.39
442.755	154.39
443.125	152.39
443.496	152.39
443.866	154.39
444.236	147.39
444.606	140.39
444.976	136.39
445.346	149.39
445.716	145.39
446.085	144.39
446.455	162.39
446.825	145.39
447.195	133.39
447.565	127.39
447.934	167.39
448.304	172.39
448.673	179.39
449.043	171.39
449.412	149.39
449.782	139.39
450.151	132.39
450.521	131.39
450.89	138.39
451.259	126.39
451.628	126.39
451.998	118.39
452.367	113.39
452.736	114.39
453.105	112.39
453.474	124.39
453.843	139.39
454.212	136.39
454.581	144.39
454.95	130.39
455.318	132.39
455.687	130.39
456.056	120.39
456.424	117.39
456.793	126.39
457.162	117.39
457.53	106.39
457.899	109.39
458.267	111.39
458.636	127.39
459.004	136.39
459.372	152.39
459.741	151.39
460.109	144.39
460.477	132.39
460.845	138.39
461.213	142.39
461.581	126.39
461.949	120.39
462.317	107.39
462.685	107.39
463.053	110.39
463.421	119.39
463.789	114.39
464.157	121.39
464.524	130.39
464.892	124.39
465.26	158.39
465.627	229.39
465.995	231.39
466.362	195.39
466.73	157.39
467.097	154.39
467.464	185.39
467.832	236.39
468.199	251.39
468.566	195.39
468.933	150.39
469.301	148.39
469.668	143.39
470.035	122.39
470.402	109.39
470.769	112.39
471.136	133.39
471.503	115.39
471.869	119.39
472.236	108.39
472.603	106.39
472.97	104.39
473.336	103.39
473.703	94.39
474.07	95.39
474.436	103.39
474.803	112.39
475.169	115.39
475.536	141.39
475.902	149.39
476.268	121.39
476.635	116.39
477.001	114.39
477.367	113.39
477.733	100.39
478.099	106.39
478.465	98.39
478.831	92.39
479.197	105.39
479.563	107.39
479.929	123.39
480.295	121.39
480.661	117.39
481.026	117.39
481.392	126.39
481.758	118.39
482.123	116.39
482.489	104.39
482.855	115.39
483.22	123.39
483.585	162.39
483.951	280.39
484.316	343.39
484.682	331.39
485.047	222.39
485.412	209.39
485.777	168.39
486.142	171.39
486.507	145.39
486.873	131.39
487.238	137.39
487.602	134.39
487.967	167.39
488.332	235.39
488.697	273.39
489.062	253.39
489.427	192.39
489.791	157.39
490.156	163.39
490.521	143.39
490.885	146.39
491.25	145.39
491.614	140.39
491.979	132.39
492.343	131.39
492.707	134.39
493.072	139.39
493.436	140.39
493.8	136.39
494.164	121.39
494.528	126.39
494.892	124.39
495.256	131.39
495.62	121.39
495.984	133.39
496.348	137.39
496.712	124.39
497.076	132.39
497.44	158.39
497.803	201.39
498.167	242.39
498.531	246.39
498.894	193.39
499.258	190.39
499.621	180.39
499.985	228.39
500.348	300.39
500.711	337.39
501.075	335.39
501.438	324.39
501.801	288.39
502.164	211.39
502.527	192.39
502.891	173.39
503.254	148.39
503.617	153.39
503.98	145.39
504.342	173.39
504.705	274.39
505.068	441.39
505.431	510.39
505.794	404.39
506.156	305.39
506.519	313.39
506.882	342.39
507.244	324.39
507.607	248.39
507.969	194.39
508.331	167.39
508.694	149.39
509.056	140.39
509.418	118.39
509.781	122.39
510.143	133.39
510.505	137.39
510.867	132.39
511.229	125.39
511.591	134.39
511.953	123.39
512.315	127.39
512.677	132.39
513.039	139.39
513.401	126.39
513.762	118.39
514.124	128.39
514.486	120.39
514.847	119.39
515.209	126.39
515.57	124.39
515.932	118.39
516.293	115.39
516.654	116.39
517.016	111.39
517.377	113.39
517.738	118.39
518.1	123.39
518.461	115.39
518.822	126.39
519.183	129.39
519.544	127.39
519.905	144.39
520.266	147.39
520.627	154.39
520.987	162.39
521.348	160.39
521.709	201.39
522.07	267.39
522.43	313.39
522.791	295.39
523.151	210.39
523.512	185.39
523.872	172.39
524.233	171.39
524.593	161.39
524.953	137.39
525.314	150.39
525.674	144.39
526.034	155.39
526.394	128.39
526.754	132.39
527.114	131.39
527.474	137.39
527.834	125.39
528.194	118.39
528.554	116.39
528.914	110.39
529.274	111.39
529.634	99.39
529.993	103.39
530.353	101.39
530.712	101.39
531.072	118.39
531.431	111.39
531.791	108.39
532.15	115.39
532.51	98.39
532.869	109.39
533.228	103.39
533.587	99.39
533.947	110.39
534.306	116.39
534.665	129.39
535.024	136.39
535.383	138.39
535.742	131.39
536.101	119.39
536.46	111.39
536.818	115.39
537.177	118.39
537.536	113.39
537.895	114.39
538.253	112.39
538.612	118.39
538.97	111.39
539.329	113.39
539.687	104.39
540.046	104.39
540.404	103.39
540.762	98.39
541.12	93.39
541.479	102.39
541.837	101.39
542.195	94.39
542.553	100.39
542.911	102.39
543.269	119.39
543.627	114.39
543.985	108.39
544.343	107.39
544.7	98.39
545.058	101.39
545.416	100.39
545.774	102.39
546.131	93.39
546.489	101.39
546.846	92.39
547.204	104.39
547.561	98.39
547.918	104.39
548.276	110.39
548.633	115.39
548.99	129.39
549.347	144.39
549.705	135.39
550.062	131.39
550.419	133.39
550.776	136.39
551.133	178.39
551.49	199.39
551.846	181.39
552.203	139.39
552.56	125.39
552.917	123.39
553.273	127.39
553.63	109.39
553.987	105.39
554.343	100.39
554.7	88.39
555.056	86.39
555.412	87.39
555.769	85.39
556.125	91.39
556.481	82.39
556.837	82.39
557.194	84.39
557.55	87.39
557.906	76.39
558.262	78.39
558.618	92.39
558.974	73.39
559.329	86.39
559.685	78.39
560.041	92.39
560.397	94.39
560.752	86.39
561.108	95.39
561.464	88.39
561.819	87.39
562.175	83.39
562.53	93.39
562.886	100.39
563.241	109.39
563.596	94.39
563.951	87.39
564.307	107.39
564.662	110.39
565.017	121.39
565.372	102.39
565.727	102.39
566.082	98.39
566.437	100.39
566.792	90.39
567.147	100.39
567.501	97.39
567.856	102.39
568.211	90.39
568.565	76.39
568.92	83.39
569.275	82.39
569.629	79.39
569.984	82.39
570.338	65.39
570.692	76.39
571.047	69.39
571.401	79.39
571.755	64.39
572.109	74.39
572.463	69.39
572.817	77.39
573.171	96.39
573.525	110.39
573.879	103.39
574.233	88.39
574.587	85.39
574.941	90.39
575.295	85.39
575.648	83.39
576.002	78.39
576.355	75.39
576.709	69.39
577.062	63.39
577.416	69.39
577.769	60.39
578.123	65.39
578.476	55.39
578.829	70.39
579.182	81.39
579.536	81.39
579.889	78.39
580.242	88.39
580.595	87.39
580.948	84.39
581.301	74.39
581.654	66.39
582.006	76.39
582.359	76.39
582.712	63.39
583.065	58.39
583.417	67.39
583.77	64.39
584.122	67.39
584.475	65.39
584.827	71.39
585.18	69.39
585.532	73.39
585.884	70.39
586.237	75.39
586.589	74.39
586.941	79.39
587.293	71.39
587.645	71.39
587.997	76.39
588.349	144.39
588.701	266.39
589.053	395.39
589.405	409.39
589.756	348.39
590.108	256.39
590.46	183.39
590.811	166.39
591.163	138.39
591.514	112.39
591.866	98.39
592.217	84.39
592.569	65.39
592.92	78.39
593.271	66.39
593.623	66.39
593.974	70.39
594.325	59.39
594.676	65.39
595.027	66.39
595.378	64.39
595.729	65.39
596.08	69.39
596.431	73.39
596.781	73.39
597.132	64.39
597.483	60.39
597.833	62.39
598.184	63.39
598.535	53.39
598.885	55.39
599.236	63.39
599.586	63.39
599.936	54.39
600.287	54.39
600.637	60.39
600.987	63.39
601.337	71.39
601.687	61.39
602.037	63.39
602.387	59.39
602.737	62.39
603.087	57.39
603.437	55.39
603.787	55.39
604.137	61.39
604.487	55.39
604.836	50.39
605.186	52.39
605.535	45.39
605.885	60.39
606.234	54.39
606.584	43.39
606.933	59.39
607.283	47.39
607.632	46.39
607.981	57.39
608.33	49.39
608.679	49.39
609.028	42.39
609.377	47.39
609.726	50.39
610.075	39.39
610.424	45.39
610.773	49.39
611.122	54.39
611.471	48.39
611.819	44.39
612.168	54.39
612.517	56.39
612.865	49.39
613.214	55.39
613.562	46.39
613.91	58.39
614.259	54.39
614.607	55.39
614.955	58.39
615.304	53.39
615.652	63.39
616	54.39
616.348	54.39
616.696	55.39
617.044	55.39
617.392	56.39
617.739	42.39
618.087	55.39
618.435	50.39
618.783	43.39
619.13	41.39
619.478	44.39
619.826	50.39
620.173	48.39
620.521	46.39
620.868	42.39
621.215	39.39
621.563	41.39
621.91	49.39
622.257	46.39
622.604	46.39
622.951	49.39
623.298	48.39
623.645	40.39
623.992	43.39
624.339	40.39
624.686	48.39
625.033	39.39
625.38	51.39
625.726	42.39
626.073	38.39
626.42	41.39
626.766	41.39
627.113	47.39
627.459	44.39
627.806	39.39
628.152	48.39
628.498	46.39
628.844	47.39
629.191	50.39
629.537	53.39
629.883	51.39
630.229	44.39
630.575	40.39
630.921	45.39
631.267	46.39
631.613	44.39
631.959	41.39
632.304	45.39
632.65	45.39
632.996	43.39
633.341	40.39
633.687	44.39
634.032	40.39
634.378	46.39
634.723	46.39
635.069	47.39
635.414	49.39
635.759	47.39
636.104	44.39
636.45	49.39
636.795	44.39
637.14	47.39
637.485	48.39
637.83	49.39
638.175	44.39
638.519	44.39
638.864	48.39
639.209	42.39
639.554	43.39
639.898	50.39
640.243	45.39
640.587	45.39
640.932	49.39
641.276	34.39
641.621	42.39
641.965	47.39
642.309	46.39
642.654	39.39
642.998	44.39
643.342	39.39
643.686	46.39
644.03	44.39
644.374	48.39
644.718	43.39
645.062	50.39
645.406	41.39
645.75	47.39
646.093	43.39
646.437	51.39
646.781	49.39
647.124	49.39
647.468	45.39
647.811	47.39
648.155	52.39
648.498	48.39
648.842	52.39
649.185	48.39
649.528	40.39
649.871	48.39
650.214	46.39
650.558	44.39
650.901	43.39
651.244	45.39
