Data from Cr-100ng_USB2E8911_003.txt Node
Date: Tue May 14 17:35:00 PDT 2019
User: admin
Spectrometer: USB2E891
Trigger mode: 1
Integration Time (sec): 1.000000E-1
Scans to average: 1
Electric dark correction enabled: true
Nonlinearity correction enabled: false
Boxcar width: 0
XAxis mode: Wavelengths
Number of Pixels in Spectrum: 2048
>>>>>Begin Spectral Data<<<<<
183.106	-229.61
183.502	3.39
183.898	7.39
184.293	10.39
184.689	12.39
185.085	13.39
185.48	11.39
185.876	14.39
186.271	11.39
186.667	17.39
187.062	13.39
187.457	16.39
187.853	17.39
188.248	11.39
188.643	14.39
189.039	20.39
189.434	14.39
189.829	20.39
190.224	16.39
190.619	18.39
191.014	16.39
191.409	19.39
191.805	18.39
192.199	15.39
192.594	25.39
192.989	20.39
193.384	20.39
193.779	21.39
194.174	17.39
194.569	27.39
194.964	18.39
195.358	22.39
195.753	27.39
196.148	28.39
196.542	23.39
196.937	20.39
197.331	22.39
197.726	25.39
198.12	20.39
198.515	25.39
198.909	22.39
199.304	26.39
199.698	23.39
200.092	25.39
200.487	24.39
200.881	25.39
201.275	26.39
201.669	22.39
202.063	25.39
202.458	26.39
202.852	29.39
203.246	30.39
203.64	24.39
204.034	28.39
204.428	27.39
204.822	27.39
205.216	26.39
205.609	30.39
206.003	26.39
206.397	24.39
206.791	30.39
207.184	27.39
207.578	29.39
207.972	32.39
208.365	32.39
208.759	29.39
209.153	37.39
209.546	33.39
209.94	42.39
210.333	35.39
210.726	32.39
211.12	35.39
211.513	29.39
211.906	29.39
212.3	26.39
212.693	31.39
213.086	30.39
213.479	32.39
213.873	31.39
214.266	35.39
214.659	30.39
215.052	32.39
215.445	32.39
215.838	37.39
216.231	27.39
216.624	42.39
217.016	36.39
217.409	41.39
217.802	42.39
218.195	42.39
218.588	48.39
218.98	44.39
219.373	51.39
219.766	45.39
220.158	43.39
220.551	43.39
220.943	43.39
221.336	49.39
221.728	46.39
222.121	50.39
222.513	55.39
222.906	61.39
223.298	61.39
223.69	53.39
224.082	54.39
224.475	64.39
224.867	74.39
225.259	75.39
225.651	64.39
226.043	57.39
226.435	53.39
226.827	57.39
227.219	51.39
227.611	47.39
228.003	48.39
228.395	50.39
228.787	45.39
229.179	60.39
229.57	57.39
229.962	68.39
230.354	64.39
230.746	68.39
231.137	68.39
231.529	58.39
231.92	61.39
232.312	69.39
232.703	81.39
233.095	76.39
233.486	72.39
233.878	63.39
234.269	68.39
234.66	57.39
235.052	64.39
235.443	53.39
235.834	58.39
236.225	74.39
236.616	93.39
237.008	71.39
237.399	86.39
237.79	69.39
238.181	79.39
238.572	85.39
238.963	123.39
239.354	135.39
239.744	148.39
240.135	139.39
240.526	103.39
240.917	86.39
241.308	87.39
241.698	99.39
242.089	98.39
242.48	101.39
242.87	116.39
243.261	118.39
243.651	108.39
244.042	106.39
244.432	107.39
244.823	118.39
245.213	134.39
245.603	138.39
245.994	151.39
246.384	139.39
246.774	149.39
247.164	138.39
247.555	161.39
247.945	183.39
248.335	224.39
248.725	247.39
249.115	248.39
249.505	206.39
249.895	175.39
250.285	129.39
250.675	141.39
251.065	138.39
251.454	133.39
251.844	177.39
252.234	173.39
252.624	153.39
253.013	126.39
253.403	134.39
253.793	127.39
254.182	136.39
254.572	179.39
254.961	218.39
255.351	269.39
255.74	233.39
256.13	193.39
256.519	199.39
256.908	250.39
257.298	259.39
257.687	223.39
258.076	235.39
258.465	199.39
258.854	156.39
259.243	163.39
259.633	164.39
260.022	201.39
260.411	242.39
260.8	219.39
261.188	206.39
261.577	183.39
261.966	185.39
262.355	172.39
262.744	161.39
263.133	165.39
263.521	160.39
263.91	128.39
264.299	147.39
264.687	173.39
265.076	233.39
265.464	303.39
265.853	347.39
266.241	316.39
266.63	258.39
267.018	235.39
267.407	248.39
267.795	253.39
268.183	242.39
268.571	200.39
268.96	178.39
269.348	254.39
269.736	330.39
270.124	365.39
270.512	302.39
270.9	260.39
271.288	280.39
271.676	345.39
272.064	375.39
272.452	291.39
272.84	218.39
273.228	143.39
273.616	120.39
274.003	152.39
274.391	171.39
274.779	181.39
275.166	176.39
275.554	191.39
275.941	285.39
276.329	346.39
276.717	346.39
277.104	311.39
277.491	282.39
277.879	249.39
278.266	180.39
278.653	187.39
279.041	200.39
279.428	233.39
279.815	233.39
280.202	253.39
280.589	202.39
280.977	162.39
281.364	149.39
281.751	174.39
282.138	196.39
282.525	230.39
282.912	299.39
283.298	322.39
283.685	255.39
284.072	220.39
284.459	253.39
284.846	241.39
285.232	238.39
285.619	233.39
286.006	235.39
286.392	265.39
286.779	235.39
287.165	216.39
287.552	264.39
287.938	267.39
288.325	242.39
288.711	161.39
289.097	206.39
289.484	250.39
289.87	222.39
290.256	161.39
290.642	156.39
291.028	194.39
291.414	199.39
291.801	193.39
292.187	216.39
292.573	187.39
292.959	218.39
293.344	266.39
293.73	336.39
294.116	421.39
294.502	464.39
294.888	365.39
295.274	225.39
295.659	134.39
296.045	153.39
296.431	179.39
296.816	169.39
297.202	195.39
297.587	225.39
297.973	225.39
298.358	208.39
298.744	188.39
299.129	221.39
299.514	224.39
299.9	197.39
300.285	158.39
300.67	172.39
301.055	239.39
301.44	303.39
301.825	338.39
302.211	335.39
302.596	292.39
302.981	212.39
303.366	179.39
303.75	202.39
304.135	257.39
304.52	331.39
304.905	345.39
305.29	258.39
305.675	152.39
306.059	140.39
306.444	177.39
306.829	210.39
307.213	229.39
307.598	215.39
307.982	216.39
308.367	180.39
308.751	149.39
309.135	178.39
309.52	164.39
309.904	146.39
310.288	161.39
310.673	158.39
311.057	174.39
311.441	170.39
311.825	172.39
312.209	167.39
312.593	168.39
312.977	173.39
313.361	174.39
313.745	175.39
314.129	193.39
314.513	238.39
314.897	253.39
315.281	229.39
315.665	204.39
316.048	207.39
316.432	203.39
316.816	192.39
317.199	228.39
317.583	297.39
317.966	300.39
318.35	248.39
318.733	206.39
319.117	199.39
319.5	228.39
319.884	251.39
320.267	311.39
320.65	337.39
321.033	338.39
321.417	357.39
321.8	326.39
322.183	222.39
322.566	175.39
322.949	201.39
323.332	203.39
323.715	220.39
324.098	251.39
324.481	297.39
324.864	289.39
325.246	243.39
325.629	217.39
326.012	192.39
326.395	228.39
326.777	227.39
327.16	234.39
327.543	208.39
327.925	196.39
328.308	183.39
328.69	187.39
329.073	205.39
329.455	230.39
329.837	283.39
330.22	276.39
330.602	247.39
330.984	233.39
331.366	244.39
331.748	207.39
332.131	222.39
332.513	249.39
332.895	257.39
333.277	289.39
333.659	336.39
334.041	431.39
334.423	419.39
334.804	321.39
335.186	247.39
335.568	239.39
335.95	249.39
336.332	262.39
336.713	241.39
337.095	290.39
337.476	333.39
337.858	309.39
338.239	227.39
338.621	189.39
339.002	170.39
339.384	177.39
339.765	224.39
340.146	243.39
340.528	241.39
340.909	243.39
341.29	251.39
341.671	218.39
342.053	226.39
342.434	193.39
342.815	209.39
343.196	168.39
343.577	182.39
343.958	208.39
344.338	208.39
344.719	206.39
345.1	193.39
345.481	200.39
345.862	197.39
346.242	188.39
346.623	188.39
347.004	162.39
347.384	176.39
347.765	200.39
348.145	205.39
348.526	225.39
348.906	254.39
349.287	270.39
349.667	218.39
350.047	195.39
350.428	188.39
350.808	210.39
351.188	203.39
351.568	184.39
351.948	176.39
352.328	197.39
352.708	211.39
353.088	230.39
353.468	219.39
353.848	247.39
354.228	263.39
354.608	289.39
354.988	266.39
355.368	221.39
355.747	204.39
356.127	218.39
356.507	271.39
356.886	378.39
357.266	434.39
357.645	388.39
358.025	342.39
358.404	278.39
358.784	335.39
359.163	381.39
359.542	341.39
359.922	290.39
360.301	295.39
360.68	330.39
361.059	446.39
361.439	567.39
361.818	537.39
362.197	384.39
362.576	261.39
362.955	243.39
363.334	274.39
363.713	334.39
364.091	391.39
364.47	374.39
364.849	287.39
365.228	260.39
365.606	273.39
365.985	255.39
366.364	193.39
366.742	192.39
367.121	196.39
367.499	222.39
367.878	276.39
368.256	327.39
368.635	317.39
369.013	260.39
369.391	233.39
369.77	208.39
370.148	270.39
370.526	323.39
370.904	347.39
371.282	301.39
371.66	279.39
372.038	219.39
372.416	188.39
372.794	167.39
373.172	214.39
373.55	235.39
373.928	238.39
374.306	221.39
374.683	228.39
375.061	276.39
375.439	359.39
375.816	437.39
376.194	461.39
376.572	445.39
376.949	422.39
377.327	433.39
377.704	437.39
378.081	416.39
378.459	368.39
378.836	350.39
379.213	353.39
379.591	366.39
379.968	320.39
380.345	340.39
380.722	381.39
381.099	473.39
381.476	523.39
381.853	517.39
382.23	448.39
382.607	421.39
382.984	536.39
383.361	614.39
383.738	657.39
384.114	639.39
384.491	631.39
384.868	624.39
385.244	587.39
385.621	561.39
385.997	614.39
386.374	769.39
386.75	863.39
387.127	805.39
387.503	712.39
387.88	641.39
388.256	566.39
388.632	427.39
389.008	309.39
389.385	279.39
389.761	256.39
390.137	246.39
390.513	237.39
390.889	219.39
391.265	208.39
391.641	219.39
392.017	237.39
392.393	284.39
392.768	450.39
393.144	591.39
393.52	629.39
393.896	468.39
394.271	389.39
394.647	378.39
395.022	440.39
395.398	383.39
395.773	344.39
396.149	382.39
396.524	465.39
396.9	468.39
397.275	384.39
397.65	357.39
398.026	372.39
398.401	386.39
398.776	347.39
399.151	369.39
399.526	363.39
399.901	457.39
400.276	757.39
400.651	1227.39
401.026	1420.39
401.401	1197.39
401.776	764.39
402.151	476.39
402.525	320.39
402.9	297.39
403.275	331.39
403.649	373.39
404.024	478.39
404.399	518.39
404.773	477.39
405.148	327.39
405.522	251.39
405.896	297.39
406.271	421.39
406.645	754.39
407.019	1205.39
407.393	1298.39
407.768	1066.39
408.142	671.39
408.516	492.39
408.89	371.39
409.264	330.39
409.638	419.39
410.012	515.39
410.386	563.39
410.76	446.39
411.133	374.39
411.507	382.39
411.881	369.39
412.255	370.39
412.628	361.39
413.002	348.39
413.375	423.39
413.749	448.39
414.122	400.39
414.496	369.39
414.869	318.39
415.243	299.39
415.616	284.39
415.989	254.39
416.363	285.39
416.736	359.39
417.109	416.39
417.482	360.39
417.855	308.39
418.228	274.39
418.601	225.39
418.974	196.39
419.347	208.39
419.72	224.39
420.093	251.39
420.465	277.39
420.838	265.39
421.211	266.39
421.583	277.39
421.956	289.39
422.329	293.39
422.701	287.39
423.074	273.39
423.446	308.39
423.818	356.39
424.191	429.39
424.563	420.39
424.935	383.39
425.308	403.39
425.68	487.39
426.052	510.39
426.424	625.39
426.796	770.39
427.168	786.39
427.54	671.39
427.912	565.39
428.284	480.39
428.656	623.39
429.028	1115.39
429.399	1368.39
429.771	1420.39
430.143	1163.39
430.514	895.39
430.886	596.39
431.258	401.39
431.629	274.39
432.001	242.39
432.372	228.39
432.743	267.39
433.115	284.39
433.486	286.39
433.857	277.39
434.229	300.39
434.6	351.39
434.971	345.39
435.342	292.39
435.713	270.39
436.084	285.39
436.455	243.39
436.826	253.39
437.197	223.39
437.568	216.39
437.939	213.39
438.309	206.39
438.68	203.39
439.051	203.39
439.421	190.39
439.792	179.39
440.163	210.39
440.533	227.39
440.903	254.39
441.274	226.39
441.644	241.39
442.015	235.39
442.385	259.39
442.755	253.39
443.125	253.39
443.496	249.39
443.866	245.39
444.236	230.39
444.606	205.39
444.976	206.39
445.346	219.39
445.716	213.39
446.085	243.39
446.455	237.39
446.825	229.39
447.195	197.39
447.565	207.39
447.934	234.39
448.304	273.39
448.673	275.39
449.043	253.39
449.412	225.39
449.782	216.39
450.151	199.39
450.521	195.39
450.89	198.39
451.259	207.39
451.628	196.39
451.998	176.39
452.367	169.39
452.736	167.39
453.105	180.39
453.474	191.39
453.843	201.39
454.212	218.39
454.581	244.39
454.95	265.39
455.318	282.39
455.687	268.39
456.056	225.39
456.424	207.39
456.793	214.39
457.162	200.39
457.53	170.39
457.899	173.39
458.267	188.39
458.636	209.39
459.004	219.39
459.372	240.39
459.741	230.39
460.109	234.39
460.477	211.39
460.845	240.39
461.213	219.39
461.581	192.39
461.949	180.39
462.317	166.39
462.685	159.39
463.053	170.39
463.421	165.39
463.789	189.39
464.157	190.39
464.524	203.39
464.892	182.39
465.26	261.39
465.627	371.39
465.995	407.39
466.362	315.39
466.73	256.39
467.097	253.39
467.464	316.39
467.832	412.39
468.199	400.39
468.566	318.39
468.933	259.39
469.301	251.39
469.668	236.39
470.035	202.39
470.402	175.39
470.769	174.39
471.136	191.39
471.503	180.39
471.869	189.39
472.236	177.39
472.603	171.39
472.97	157.39
473.336	146.39
473.703	145.39
474.07	160.39
474.436	166.39
474.803	160.39
475.169	191.39
475.536	235.39
475.902	218.39
476.268	192.39
476.635	177.39
477.001	187.39
477.367	165.39
477.733	154.39
478.099	149.39
478.465	156.39
478.831	146.39
479.197	143.39
479.563	167.39
479.929	177.39
480.295	187.39
480.661	181.39
481.026	184.39
481.392	189.39
481.758	194.39
482.123	182.39
482.489	167.39
482.855	172.39
483.22	182.39
483.585	262.39
483.951	495.39
484.316	579.39
484.682	564.39
485.047	395.39
485.412	335.39
485.777	289.39
486.142	270.39
486.507	233.39
486.873	210.39
487.238	204.39
487.602	209.39
487.967	271.39
488.332	411.39
488.697	465.39
489.062	441.39
489.427	346.39
489.791	298.39
490.156	272.39
490.521	252.39
490.885	223.39
491.25	230.39
491.614	245.39
491.979	273.39
492.343	258.39
492.707	261.39
493.072	296.39
493.436	301.39
493.8	255.39
494.164	222.39
494.528	197.39
494.892	196.39
495.256	218.39
495.62	204.39
495.984	209.39
496.348	205.39
496.712	199.39
497.076	212.39
497.44	253.39
497.803	348.39
498.167	414.39
498.531	417.39
498.894	355.39
499.258	322.39
499.621	314.39
499.985	389.39
500.348	545.39
500.711	584.39
501.075	597.39
501.438	569.39
501.801	519.39
502.164	374.39
502.527	319.39
502.891	266.39
503.254	237.39
503.617	216.39
503.98	229.39
504.342	264.39
504.705	456.39
505.068	792.39
505.431	915.39
505.794	716.39
506.156	519.39
506.519	556.39
506.882	604.39
507.244	592.39
507.607	436.39
507.969	318.39
508.331	275.39
508.694	233.39
509.056	218.39
509.418	185.39
509.781	188.39
510.143	203.39
510.505	221.39
510.867	224.39
511.229	215.39
511.591	216.39
511.953	208.39
512.315	211.39
512.677	212.39
513.039	207.39
513.401	208.39
513.762	204.39
514.124	188.39
514.486	187.39
514.847	193.39
515.209	196.39
515.57	182.39
515.932	170.39
516.293	164.39
516.654	165.39
517.016	155.39
517.377	161.39
517.738	175.39
518.1	178.39
518.461	203.39
518.822	191.39
519.183	205.39
519.544	219.39
519.905	292.39
520.266	395.39
520.627	434.39
520.987	420.39
521.348	369.39
521.709	386.39
522.07	524.39
522.43	586.39
522.791	538.39
523.151	377.39
523.512	314.39
523.872	301.39
524.233	277.39
524.593	259.39
524.953	222.39
525.314	224.39
525.674	249.39
526.034	233.39
526.394	228.39
526.754	201.39
527.114	200.39
527.474	198.39
527.834	204.39
528.194	184.39
528.554	172.39
528.914	173.39
529.274	174.39
529.634	156.39
529.993	179.39
530.353	171.39
530.712	164.39
531.072	162.39
531.431	161.39
531.791	168.39
532.15	170.39
532.51	158.39
532.869	157.39
533.228	156.39
533.587	164.39
533.947	176.39
534.306	175.39
534.665	203.39
535.024	232.39
535.383	231.39
535.742	200.39
536.101	185.39
536.46	172.39
536.818	183.39
537.177	177.39
537.536	187.39
537.895	178.39
538.253	159.39
538.612	159.39
538.97	169.39
539.329	156.39
539.687	158.39
540.046	160.39
540.404	152.39
540.762	139.39
541.12	144.39
541.479	148.39
541.837	145.39
542.195	149.39
542.553	149.39
542.911	144.39
543.269	169.39
543.627	176.39
543.985	164.39
544.343	153.39
544.7	142.39
545.058	135.39
545.416	141.39
545.774	145.39
546.131	137.39
546.489	132.39
546.846	143.39
547.204	157.39
547.561	150.39
547.918	158.39
548.276	154.39
548.633	193.39
548.99	217.39
549.347	237.39
549.705	223.39
550.062	201.39
550.419	192.39
550.776	236.39
551.133	300.39
551.49	328.39
551.846	309.39
552.203	221.39
552.56	180.39
552.917	181.39
553.273	169.39
553.63	169.39
553.987	166.39
554.343	131.39
554.7	128.39
555.056	123.39
555.412	112.39
555.769	124.39
556.125	118.39
556.481	115.39
556.837	123.39
557.194	123.39
557.55	113.39
557.906	118.39
558.262	112.39
558.618	102.39
558.974	104.39
559.329	110.39
559.685	117.39
560.041	122.39
560.397	123.39
560.752	127.39
561.108	118.39
561.464	136.39
561.819	129.39
562.175	129.39
562.53	127.39
562.886	140.39
563.241	144.39
563.596	138.39
563.951	141.39
564.307	167.39
564.662	187.39
565.017	197.39
565.372	165.39
565.727	155.39
566.082	162.39
566.437	142.39
566.792	130.39
567.147	142.39
567.501	146.39
567.856	145.39
568.211	128.39
568.565	115.39
568.92	109.39
569.275	104.39
569.629	107.39
569.984	106.39
570.338	102.39
570.692	95.39
571.047	106.39
571.401	95.39
571.755	95.39
572.109	101.39
572.463	97.39
572.817	107.39
573.171	145.39
573.525	176.39
573.879	153.39
574.233	130.39
574.587	130.39
574.941	118.39
575.295	119.39
575.648	114.39
576.002	112.39
576.355	88.39
576.709	102.39
577.062	92.39
577.416	86.39
577.769	86.39
578.123	83.39
578.476	84.39
578.829	94.39
579.182	98.39
579.536	114.39
579.889	124.39
580.242	146.39
580.595	161.39
580.948	128.39
581.301	115.39
581.654	99.39
582.006	93.39
582.359	94.39
582.712	94.39
583.065	96.39
583.417	99.39
583.77	86.39
584.122	97.39
584.475	93.39
584.827	107.39
585.18	105.39
585.532	102.39
585.884	102.39
586.237	111.39
586.589	102.39
586.941	97.39
587.293	92.39
587.645	101.39
587.997	95.39
588.349	136.39
588.701	203.39
589.053	269.39
589.405	269.39
589.756	246.39
590.108	198.39
590.46	145.39
590.811	128.39
591.163	129.39
591.514	104.39
591.866	103.39
592.217	84.39
592.569	86.39
592.92	87.39
593.271	80.39
593.623	85.39
593.974	90.39
594.325	94.39
594.676	91.39
595.027	85.39
595.378	91.39
595.729	97.39
596.08	95.39
596.431	107.39
596.781	96.39
597.132	99.39
597.483	86.39
597.833	89.39
598.184	77.39
598.535	83.39
598.885	80.39
599.236	84.39
599.586	74.39
599.936	80.39
600.287	71.39
600.637	79.39
600.987	86.39
601.337	87.39
601.687	79.39
602.037	88.39
602.387	89.39
602.737	77.39
603.087	73.39
603.437	72.39
603.787	78.39
604.137	68.39
604.487	76.39
604.836	65.39
605.186	64.39
605.535	65.39
605.885	65.39
606.234	58.39
606.584	67.39
606.933	65.39
607.283	56.39
607.632	59.39
607.981	70.39
608.33	58.39
608.679	55.39
609.028	63.39
609.377	58.39
609.726	66.39
610.075	60.39
610.424	58.39
610.773	64.39
611.122	57.39
611.471	66.39
611.819	61.39
612.168	61.39
612.517	67.39
612.865	66.39
613.214	58.39
613.562	72.39
613.91	78.39
614.259	81.39
614.607	72.39
614.955	72.39
615.304	73.39
615.652	76.39
616	80.39
616.348	71.39
616.696	70.39
617.044	66.39
617.392	67.39
617.739	60.39
618.087	62.39
618.435	60.39
618.783	60.39
619.13	57.39
619.478	55.39
619.826	57.39
620.173	57.39
620.521	56.39
620.868	53.39
621.215	57.39
621.563	48.39
621.91	56.39
622.257	56.39
622.604	58.39
622.951	49.39
623.298	54.39
623.645	60.39
623.992	55.39
624.339	56.39
624.686	57.39
625.033	59.39
625.38	62.39
625.726	57.39
626.073	57.39
626.42	59.39
626.766	58.39
627.113	49.39
627.459	50.39
627.806	52.39
628.152	62.39
628.498	57.39
628.844	65.39
629.191	57.39
629.537	70.39
629.883	60.39
630.229	66.39
630.575	60.39
630.921	65.39
631.267	52.39
631.613	61.39
631.959	54.39
632.304	57.39
632.65	56.39
632.996	53.39
633.341	50.39
633.687	47.39
634.032	61.39
634.378	48.39
634.723	54.39
635.069	40.39
635.414	52.39
635.759	54.39
636.104	50.39
636.45	52.39
636.795	54.39
637.14	59.39
637.485	52.39
637.83	53.39
638.175	49.39
638.519	51.39
638.864	54.39
639.209	55.39
639.554	53.39
639.898	55.39
640.243	62.39
640.587	53.39
640.932	58.39
641.276	50.39
641.621	54.39
641.965	49.39
642.309	49.39
642.654	47.39
642.998	54.39
643.342	52.39
643.686	53.39
644.03	57.39
644.374	67.39
644.718	65.39
645.062	64.39
645.406	54.39
645.75	59.39
646.093	56.39
646.437	54.39
646.781	58.39
647.124	53.39
647.468	52.39
647.811	60.39
648.155	50.39
648.498	68.39
648.842	61.39
