Data from Cr-100ng_USB2E8911_003.txt Node
Date: Mon May 20 13:58:36 PDT 2019
User: admin
Spectrometer: USB2E891
Trigger mode: 1
Integration Time (sec): 1.000000E-1
Scans to average: 1
Electric dark correction enabled: true
Nonlinearity correction enabled: false
Boxcar width: 0
XAxis mode: Wavelengths
Number of Pixels in Spectrum: 2048
>>>>>Begin Spectral Data<<<<<
183.106	-231.78
183.502	4.22
183.898	5.22
184.293	6.22
184.689	9.22
185.085	11.22
185.48	7.22
185.876	18.22
186.271	12.22
186.667	19.22
187.062	19.22
187.457	15.22
187.853	15.22
188.248	20.22
188.643	19.22
189.039	17.22
189.434	17.22
189.829	15.22
190.224	13.22
190.619	19.22
191.014	14.22
191.409	20.22
191.805	13.22
192.199	16.22
192.594	15.22
192.989	13.22
193.384	22.22
193.779	18.22
194.174	12.22
194.569	19.22
194.964	24.22
195.358	19.22
195.753	18.22
196.148	20.22
196.542	20.22
196.937	21.22
197.331	16.22
197.726	18.22
198.12	20.22
198.515	19.22
198.909	17.22
199.304	17.22
199.698	17.22
200.092	15.22
200.487	22.22
200.881	19.22
201.275	21.22
201.669	17.22
202.063	14.22
202.458	15.22
202.852	19.22
203.246	26.22
203.64	17.22
204.034	17.22
204.428	22.22
204.822	22.22
205.216	14.22
205.609	21.22
206.003	21.22
206.397	24.22
206.791	19.22
207.184	18.22
207.578	21.22
207.972	18.22
208.365	21.22
208.759	21.22
209.153	29.22
209.546	25.22
209.94	15.22
210.333	21.22
210.726	20.22
211.12	19.22
211.513	13.22
211.906	19.22
212.3	26.22
212.693	22.22
213.086	23.22
213.479	20.22
213.873	22.22
214.266	20.22
214.659	22.22
215.052	21.22
215.445	19.22
215.838	29.22
216.231	21.22
216.624	24.22
217.016	22.22
217.409	18.22
217.802	23.22
218.195	28.22
218.588	22.22
218.98	24.22
219.373	24.22
219.766	21.22
220.158	16.22
220.551	23.22
220.943	23.22
221.336	24.22
221.728	24.22
222.121	26.22
222.513	24.22
222.906	20.22
223.298	21.22
223.69	22.22
224.082	20.22
224.475	23.22
224.867	23.22
225.259	19.22
225.651	22.22
226.043	20.22
226.435	28.22
226.827	24.22
227.219	21.22
227.611	26.22
228.003	28.22
228.395	24.22
228.787	21.22
229.179	23.22
229.57	21.22
229.962	26.22
230.354	23.22
230.746	23.22
231.137	25.22
231.529	31.22
231.92	30.22
232.312	28.22
232.703	26.22
233.095	30.22
233.486	28.22
233.878	22.22
234.269	24.22
234.66	23.22
235.052	27.22
235.443	24.22
235.834	24.22
236.225	27.22
236.616	32.22
237.008	29.22
237.399	32.22
237.79	24.22
238.181	25.22
238.572	25.22
238.963	33.22
239.354	34.22
239.744	31.22
240.135	34.22
240.526	28.22
240.917	29.22
241.308	28.22
241.698	26.22
242.089	32.22
242.48	32.22
242.87	31.22
243.261	36.22
243.651	34.22
244.042	40.22
244.432	33.22
244.823	34.22
245.213	37.22
245.603	46.22
245.994	42.22
246.384	37.22
246.774	40.22
247.164	35.22
247.555	46.22
247.945	41.22
248.335	58.22
248.725	54.22
249.115	50.22
249.505	46.22
249.895	42.22
250.285	42.22
250.675	43.22
251.065	46.22
251.454	33.22
251.844	45.22
252.234	47.22
252.624	45.22
253.013	45.22
253.403	39.22
253.793	37.22
254.182	45.22
254.572	51.22
254.961	57.22
255.351	67.22
255.74	51.22
256.13	43.22
256.519	48.22
256.908	52.22
257.298	54.22
257.687	49.22
258.076	61.22
258.465	46.22
258.854	47.22
259.243	44.22
259.633	48.22
260.022	54.22
260.411	61.22
260.8	55.22
261.188	65.22
261.577	62.22
261.966	54.22
262.355	51.22
262.744	54.22
263.133	56.22
263.521	51.22
263.91	53.22
264.299	53.22
264.687	55.22
265.076	68.22
265.464	88.22
265.853	104.22
266.241	93.22
266.63	94.22
267.018	95.22
267.407	101.22
267.795	113.22
268.183	90.22
268.571	70.22
268.96	75.22
269.348	85.22
269.736	100.22
270.124	91.22
270.512	80.22
270.9	76.22
271.288	83.22
271.676	96.22
272.064	121.22
272.452	101.22
272.84	71.22
273.228	60.22
273.616	58.22
274.003	66.22
274.391	95.22
274.779	111.22
275.166	102.22
275.554	108.22
275.941	117.22
276.329	142.22
276.717	132.22
277.104	122.22
277.491	93.22
277.879	74.22
278.266	66.22
278.653	67.22
279.041	64.22
279.428	65.22
279.815	70.22
280.202	60.22
280.589	58.22
280.977	61.22
281.364	64.22
281.751	69.22
282.138	76.22
282.525	98.22
282.912	135.22
283.298	179.22
283.685	169.22
284.072	161.22
284.459	172.22
284.846	173.22
285.232	180.22
285.619	192.22
286.006	203.22
286.392	220.22
286.779	186.22
287.165	152.22
287.552	145.22
287.938	135.22
288.325	107.22
288.711	86.22
289.097	110.22
289.484	112.22
289.87	101.22
290.256	82.22
290.642	71.22
291.028	80.22
291.414	91.22
291.801	75.22
292.187	80.22
292.573	85.22
292.959	83.22
293.344	98.22
293.73	118.22
294.116	144.22
294.502	180.22
294.888	133.22
295.274	76.22
295.659	62.22
296.045	77.22
296.431	96.22
296.816	104.22
297.202	117.22
297.587	126.22
297.973	142.22
298.358	180.22
298.744	159.22
299.129	149.22
299.514	142.22
299.9	126.22
300.285	118.22
300.67	126.22
301.055	216.22
301.44	289.22
301.825	303.22
302.211	245.22
302.596	174.22
302.981	136.22
303.366	109.22
303.75	119.22
304.135	135.22
304.52	152.22
304.905	130.22
305.29	121.22
305.675	74.22
306.059	72.22
306.444	65.22
306.829	72.22
307.213	63.22
307.598	70.22
307.982	71.22
308.367	68.22
308.751	72.22
309.135	67.22
309.52	76.22
309.904	70.22
310.288	70.22
310.673	87.22
311.057	92.22
311.441	124.22
311.825	176.22
312.209	178.22
312.593	172.22
312.977	171.22
313.361	142.22
313.745	111.22
314.129	89.22
314.513	85.22
314.897	76.22
315.281	76.22
315.665	79.22
316.048	85.22
316.432	87.22
316.816	83.22
317.199	85.22
317.583	108.22
317.966	117.22
318.35	108.22
318.733	96.22
319.117	96.22
319.5	119.22
319.884	135.22
320.267	122.22
320.65	146.22
321.033	163.22
321.417	163.22
321.8	147.22
322.183	95.22
322.566	84.22
322.949	86.22
323.332	98.22
323.715	100.22
324.098	124.22
324.481	166.22
324.864	162.22
325.246	126.22
325.629	103.22
326.012	96.22
326.395	114.22
326.777	113.22
327.16	133.22
327.543	124.22
327.925	97.22
328.308	74.22
328.69	93.22
329.073	95.22
329.455	112.22
329.837	135.22
330.22	131.22
330.602	118.22
330.984	110.22
331.366	143.22
331.748	94.22
332.131	110.22
332.513	131.22
332.895	132.22
333.277	142.22
333.659	140.22
334.041	176.22
334.423	138.22
334.804	117.22
335.186	115.22
335.568	121.22
335.95	138.22
336.332	152.22
336.713	156.22
337.095	174.22
337.476	155.22
337.858	139.22
338.239	126.22
338.621	105.22
339.002	93.22
339.384	98.22
339.765	100.22
340.146	128.22
340.528	139.22
340.909	148.22
341.29	138.22
341.671	129.22
342.053	157.22
342.434	129.22
342.815	132.22
343.196	121.22
343.577	120.22
343.958	117.22
344.338	113.22
344.719	108.22
345.1	107.22
345.481	101.22
345.862	98.22
346.242	99.22
346.623	88.22
347.004	74.22
347.384	90.22
347.765	88.22
348.145	95.22
348.526	90.22
348.906	111.22
349.287	108.22
349.667	103.22
350.047	101.22
350.428	99.22
350.808	113.22
351.188	111.22
351.568	100.22
351.948	98.22
352.328	101.22
352.708	98.22
353.088	104.22
353.468	114.22
353.848	133.22
354.228	143.22
354.608	161.22
354.988	131.22
355.368	120.22
355.747	103.22
356.127	123.22
356.507	164.22
356.886	231.22
357.266	349.22
357.645	426.22
358.025	420.22
358.404	340.22
358.784	345.22
359.163	388.22
359.542	396.22
359.922	346.22
360.301	388.22
360.68	370.22
361.059	305.22
361.439	281.22
361.818	277.22
362.197	217.22
362.576	156.22
362.955	153.22
363.334	167.22
363.713	186.22
364.091	181.22
364.47	164.22
364.849	148.22
365.228	132.22
365.606	121.22
365.985	124.22
366.364	112.22
366.742	110.22
367.121	108.22
367.499	138.22
367.878	161.22
368.256	200.22
368.635	171.22
369.013	140.22
369.391	124.22
369.77	120.22
370.148	157.22
370.526	197.22
370.904	202.22
371.282	167.22
371.66	153.22
372.038	132.22
372.416	123.22
372.794	127.22
373.172	141.22
373.55	149.22
373.928	157.22
374.306	181.22
374.683	194.22
375.061	213.22
375.439	269.22
375.816	307.22
376.194	314.22
376.572	312.22
376.949	278.22
377.327	281.22
377.704	272.22
378.081	285.22
378.459	277.22
378.836	294.22
379.213	313.22
379.591	315.22
379.968	257.22
380.345	254.22
380.722	267.22
381.099	328.22
381.476	364.22
381.853	363.22
382.23	328.22
382.607	312.22
382.984	366.22
383.361	418.22
383.738	453.22
384.114	455.22
384.491	455.22
384.868	471.22
385.244	432.22
385.621	403.22
385.997	430.22
386.374	536.22
386.75	625.22
387.127	578.22
387.503	507.22
387.88	472.22
388.256	474.22
388.632	369.22
389.008	250.22
389.385	191.22
389.761	172.22
390.137	172.22
390.513	186.22
390.889	189.22
391.265	233.22
391.641	258.22
392.017	264.22
392.393	267.22
392.768	327.22
393.144	371.22
393.52	357.22
393.896	298.22
394.271	284.22
394.647	323.22
395.022	358.22
395.398	307.22
395.773	265.22
396.149	305.22
396.524	375.22
396.9	353.22
397.275	313.22
397.65	299.22
398.026	323.22
398.401	341.22
398.776	346.22
399.151	345.22
399.526	329.22
399.901	324.22
400.276	456.22
400.651	685.22
401.026	794.22
401.401	663.22
401.776	462.22
402.151	301.22
402.525	238.22
402.9	235.22
403.275	261.22
403.649	300.22
404.024	360.22
404.399	387.22
404.773	366.22
405.148	251.22
405.522	188.22
405.896	214.22
406.271	306.22
406.645	483.22
407.019	750.22
407.393	862.22
407.768	696.22
408.142	495.22
408.516	361.22
408.89	291.22
409.264	259.22
409.638	294.22
410.012	379.22
410.386	389.22
410.76	314.22
411.133	260.22
411.507	275.22
411.881	306.22
412.255	320.22
412.628	322.22
413.002	282.22
413.375	315.22
413.749	325.22
414.122	306.22
414.496	281.22
414.869	255.22
415.243	237.22
415.616	220.22
415.989	201.22
416.363	210.22
416.736	256.22
417.109	290.22
417.482	244.22
417.855	228.22
418.228	206.22
418.601	175.22
418.974	193.22
419.347	199.22
419.72	213.22
420.093	223.22
420.465	215.22
420.838	217.22
421.211	207.22
421.583	210.22
421.956	230.22
422.329	247.22
422.701	233.22
423.074	219.22
423.446	251.22
423.818	292.22
424.191	346.22
424.563	428.22
424.935	608.22
425.308	779.22
425.68	803.22
426.052	584.22
426.424	634.22
426.796	837.22
427.168	988.22
427.54	974.22
427.912	808.22
428.284	702.22
428.656	885.22
429.028	1212.22
429.399	1246.22
429.771	1090.22
430.143	881.22
430.514	665.22
430.886	417.22
431.258	297.22
431.629	217.22
432.001	208.22
432.372	209.22
432.743	256.22
433.115	321.22
433.486	392.22
433.857	429.22
434.229	455.22
434.6	466.22
434.971	464.22
435.342	416.22
435.713	331.22
436.084	302.22
436.455	262.22
436.826	247.22
437.197	228.22
437.568	226.22
437.939	240.22
438.309	238.22
438.68	215.22
439.051	188.22
439.421	187.22
439.792	166.22
440.163	175.22
440.533	187.22
440.903	208.22
441.274	206.22
441.644	205.22
442.015	212.22
442.385	237.22
442.755	244.22
443.125	239.22
443.496	227.22
443.866	210.22
444.236	197.22
444.606	189.22
444.976	176.22
445.346	192.22
445.716	191.22
446.085	206.22
446.455	200.22
446.825	189.22
447.195	187.22
447.565	184.22
447.934	219.22
448.304	234.22
448.673	246.22
449.043	246.22
449.412	251.22
449.782	224.22
450.151	208.22
450.521	192.22
450.89	189.22
451.259	191.22
451.628	188.22
451.998	200.22
452.367	219.22
452.736	223.22
453.105	223.22
453.474	227.22
453.843	236.22
454.212	262.22
454.581	241.22
454.95	221.22
455.318	211.22
455.687	198.22
456.056	188.22
456.424	188.22
456.793	185.22
457.162	185.22
457.53	182.22
457.899	178.22
458.267	177.22
458.636	196.22
459.004	221.22
459.372	233.22
459.741	234.22
460.109	235.22
460.477	217.22
460.845	241.22
461.213	250.22
461.581	273.22
461.949	238.22
462.317	225.22
462.685	199.22
463.053	192.22
463.421	178.22
463.789	198.22
464.157	258.22
464.524	321.22
464.892	352.22
465.26	364.22
465.627	397.22
465.995	408.22
466.362	336.22
466.73	265.22
467.097	249.22
467.464	280.22
467.832	337.22
468.199	355.22
468.566	275.22
468.933	226.22
469.301	228.22
469.668	227.22
470.035	197.22
470.402	185.22
470.769	183.22
471.136	195.22
471.503	190.22
471.869	193.22
472.236	195.22
472.603	193.22
472.97	178.22
473.336	178.22
473.703	180.22
474.07	185.22
474.436	189.22
474.803	181.22
475.169	213.22
475.536	250.22
475.902	236.22
476.268	205.22
476.635	181.22
477.001	179.22
477.367	163.22
477.733	159.22
478.099	147.22
478.465	156.22
478.831	159.22
479.197	166.22
479.563	176.22
479.929	201.22
480.295	201.22
480.661	199.22
481.026	189.22
481.392	193.22
481.758	187.22
482.123	202.22
482.489	192.22
482.855	198.22
483.22	196.22
483.585	262.22
483.951	414.22
484.316	486.22
484.682	490.22
485.047	329.22
485.412	317.22
485.777	263.22
486.142	247.22
486.507	232.22
486.873	214.22
487.238	212.22
487.602	210.22
487.967	272.22
488.332	368.22
488.697	427.22
489.062	408.22
489.427	324.22
489.791	312.22
490.156	296.22
490.521	266.22
490.885	233.22
491.25	253.22
491.614	309.22
491.979	354.22
492.343	365.22
492.707	311.22
493.072	280.22
493.436	280.22
493.8	246.22
494.164	232.22
494.528	223.22
494.892	219.22
495.256	236.22
495.62	240.22
495.984	233.22
496.348	227.22
496.712	230.22
497.076	236.22
497.44	267.22
497.803	338.22
498.167	390.22
498.531	401.22
498.894	341.22
499.258	303.22
499.621	307.22
499.985	376.22
500.348	479.22
500.711	519.22
501.075	513.22
501.438	489.22
501.801	444.22
502.164	332.22
502.527	299.22
502.891	277.22
503.254	235.22
503.617	232.22
503.98	237.22
504.342	263.22
504.705	430.22
505.068	678.22
505.431	756.22
505.794	632.22
506.156	484.22
506.519	496.22
506.882	514.22
507.244	499.22
507.607	382.22
507.969	311.22
508.331	274.22
508.694	244.22
509.056	234.22
509.418	210.22
509.781	219.22
510.143	211.22
510.505	229.22
510.867	235.22
511.229	246.22
511.591	233.22
511.953	226.22
512.315	244.22
512.677	238.22
513.039	212.22
513.401	222.22
513.762	223.22
514.124	212.22
514.486	222.22
514.847	212.22
515.209	218.22
515.57	219.22
515.932	215.22
516.293	215.22
516.654	196.22
517.016	204.22
517.377	201.22
517.738	213.22
518.1	241.22
518.461	247.22
518.822	261.22
519.183	281.22
519.544	436.22
519.905	1137.22
520.266	2398.22
520.627	3329.22
520.987	3087.22
521.348	2078.22
521.709	1437.22
522.07	1238.22
522.43	1070.22
522.791	858.22
523.151	540.22
523.512	372.22
523.872	345.22
524.233	321.22
524.593	311.22
524.953	292.22
525.314	293.22
525.674	297.22
526.034	346.22
526.394	375.22
526.754	361.22
527.114	339.22
527.474	344.22
527.834	318.22
528.194	274.22
528.554	244.22
528.914	263.22
529.274	363.22
529.634	443.22
529.993	472.22
530.353	369.22
530.712	300.22
531.072	265.22
531.431	250.22
531.791	239.22
532.15	238.22
532.51	268.22
532.869	293.22
533.228	266.22
533.587	256.22
533.947	282.22
534.306	389.22
534.665	432.22
535.024	417.22
535.383	337.22
535.742	270.22
536.101	245.22
536.46	232.22
536.818	210.22
537.177	200.22
537.536	198.22
537.895	192.22
538.253	197.22
538.612	195.22
538.97	193.22
539.329	188.22
539.687	191.22
540.046	194.22
540.404	297.22
540.762	399.22
541.12	425.22
541.479	349.22
541.837	265.22
542.195	244.22
542.553	224.22
542.911	208.22
543.269	216.22
543.627	196.22
543.985	207.22
544.343	170.22
544.7	166.22
545.058	174.22
545.416	179.22
545.774	167.22
546.131	166.22
546.489	157.22
546.846	159.22
547.204	166.22
547.561	170.22
547.918	164.22
548.276	185.22
548.633	182.22
548.99	207.22
549.347	206.22
549.705	204.22
550.062	198.22
550.419	195.22
550.776	211.22
551.133	279.22
551.49	299.22
551.846	271.22
552.203	228.22
552.56	195.22
552.917	199.22
553.273	176.22
553.63	161.22
553.987	159.22
554.343	156.22
554.7	145.22
555.056	145.22
555.412	141.22
555.769	144.22
556.125	140.22
556.481	144.22
556.837	148.22
557.194	147.22
557.55	143.22
557.906	142.22
558.262	140.22
558.618	136.22
558.974	145.22
559.329	139.22
559.685	141.22
560.041	134.22
560.397	142.22
560.752	145.22
561.108	154.22
561.464	136.22
561.819	137.22
562.175	145.22
562.53	126.22
562.886	151.22
563.241	161.22
563.596	144.22
563.951	152.22
564.307	166.22
564.662	161.22
565.017	167.22
565.372	169.22
565.727	162.22
566.082	156.22
566.437	148.22
566.792	145.22
567.147	158.22
567.501	150.22
567.856	149.22
568.211	135.22
568.565	130.22
568.92	128.22
569.275	131.22
569.629	127.22
569.984	131.22
570.338	112.22
570.692	125.22
571.047	126.22
571.401	114.22
571.755	122.22
572.109	121.22
572.463	118.22
572.817	126.22
573.171	142.22
573.525	147.22
573.879	148.22
574.233	137.22
574.587	121.22
574.941	129.22
575.295	117.22
575.648	124.22
576.002	118.22
576.355	114.22
576.709	112.22
577.062	107.22
577.416	119.22
577.769	114.22
578.123	120.22
578.476	134.22
578.829	160.22
579.182	150.22
579.536	158.22
579.889	151.22
580.242	160.22
580.595	165.22
580.948	146.22
581.301	127.22
581.654	119.22
582.006	108.22
582.359	115.22
582.712	111.22
583.065	112.22
583.417	112.22
583.77	109.22
584.122	115.22
584.475	112.22
584.827	114.22
585.18	109.22
585.532	110.22
585.884	111.22
586.237	112.22
586.589	114.22
586.941	109.22
587.293	107.22
587.645	114.22
587.997	100.22
588.349	119.22
588.701	151.22
589.053	176.22
589.405	166.22
589.756	159.22
590.108	141.22
590.46	122.22
590.811	119.22
591.163	114.22
591.514	108.22
591.866	102.22
592.217	96.22
592.569	96.22
592.92	94.22
593.271	97.22
593.623	98.22
593.974	103.22
594.325	99.22
594.676	112.22
595.027	99.22
595.378	107.22
595.729	101.22
596.08	103.22
596.431	105.22
596.781	104.22
597.132	94.22
597.483	101.22
597.833	86.22
598.184	80.22
598.535	94.22
598.885	83.22
599.236	94.22
599.586	80.22
599.936	80.22
600.287	80.22
600.637	85.22
600.987	97.22
601.337	92.22
601.687	83.22
602.037	88.22
602.387	83.22
602.737	74.22
603.087	81.22
603.437	78.22
603.787	74.22
604.137	82.22
604.487	84.22
604.836	83.22
605.186	78.22
605.535	86.22
605.885	76.22
606.234	84.22
606.584	88.22
606.933	80.22
607.283	81.22
607.632	75.22
607.981	79.22
608.33	76.22
608.679	79.22
609.028	76.22
609.377	79.22
609.726	83.22
610.075	75.22
610.424	76.22
610.773	75.22
611.122	81.22
611.471	86.22
611.819	79.22
612.168	83.22
612.517	74.22
612.865	84.22
613.214	67.22
613.562	73.22
613.91	79.22
614.259	79.22
614.607	78.22
614.955	75.22
615.304	72.22
615.652	74.22
616	83.22
616.348	73.22
616.696	68.22
617.044	62.22
617.392	65.22
617.739	72.22
618.087	66.22
618.435	71.22
618.783	71.22
619.13	66.22
619.478	66.22
619.826	70.22
620.173	67.22
620.521	62.22
620.868	71.22
621.215	58.22
621.563	61.22
621.91	62.22
622.257	58.22
622.604	69.22
622.951	69.22
623.298	59.22
623.645	72.22
623.992	56.22
624.339	65.22
624.686	71.22
625.033	67.22
625.38	69.22
625.726	73.22
626.073	66.22
626.42	63.22
626.766	59.22
627.113	62.22
627.459	70.22
627.806	58.22
628.152	61.22
628.498	63.22
628.844	74.22
629.191	67.22
629.537	78.22
629.883	70.22
630.229	66.22
630.575	69.22
630.921	69.22
631.267	66.22
631.613	67.22
631.959	70.22
632.304	69.22
632.65	61.22
632.996	62.22
633.341	63.22
633.687	60.22
634.032	57.22
634.378	61.22
634.723	56.22
635.069	67.22
635.414	57.22
635.759	60.22
636.104	59.22
636.45	62.22
636.795	68.22
637.14	55.22
637.485	60.22
637.83	65.22
638.175	59.22
638.519	60.22
638.864	62.22
639.209	62.22
639.554	64.22
639.898	68.22
640.243	68.22
640.587	61.22
640.932	74.22
641.276	62.22
641.621	75.22
641.965	61.22
642.309	62.22
642.654	64.22
642.998	66.22
643.342	63.22
643.686	66.22
644.03	63.22
644.374	68.22
644.718	62.22
645.062	67.22
645.406	73.22
645.75	64.22
646.093	69.22
646.437	61.22
646.781	62.22
647.124	64.22
647.468	55.22
647.811	58.22
648.155	64.22
648.498	63.22
648.842	64.22
649.185	60.22
649.528	58.22
649.871	63.22
650.214	60.22
650.558	65.22
650.901	58.22
651.244	57.22
651.586	50.22
