Data from Cr-10ng_USB2E8911_001.txt Node
Date: Tue May 14 14:56:49 PDT 2019
User: admin
Spectrometer: USB2E891
Trigger mode: 1
Integration Time (sec): 1.000000E-1
Scans to average: 1
Electric dark correction enabled: true
Nonlinearity correction enabled: false
Boxcar width: 0
XAxis mode: Wavelengths
Number of Pixels in Spectrum: 2048
>>>>>Begin Spectral Data<<<<<
183.106	-232.22
183.502	4.78
183.898	8.78
184.293	8.78
184.689	6.78
185.085	12.78
185.48	5.78
185.876	11.78
186.271	12.78
186.667	21.78
187.062	13.78
187.457	15.78
187.853	20.78
188.248	11.78
188.643	22.78
189.039	17.78
189.434	17.78
189.829	17.78
190.224	17.78
190.619	11.78
191.014	13.78
191.409	18.78
191.805	11.78
192.199	17.78
192.594	12.78
192.989	15.78
193.384	16.78
193.779	18.78
194.174	17.78
194.569	16.78
194.964	23.78
195.358	18.78
195.753	18.78
196.148	16.78
196.542	23.78
196.937	19.78
197.331	16.78
197.726	16.78
198.12	17.78
198.515	9.78
198.909	22.78
199.304	12.78
199.698	17.78
200.092	18.78
200.487	14.78
200.881	18.78
201.275	21.78
201.669	24.78
202.063	21.78
202.458	20.78
202.852	22.78
203.246	17.78
203.64	21.78
204.034	22.78
204.428	24.78
204.822	20.78
205.216	24.78
205.609	21.78
206.003	20.78
206.397	24.78
206.791	21.78
207.184	23.78
207.578	17.78
207.972	23.78
208.365	21.78
208.759	20.78
209.153	18.78
209.546	18.78
209.94	24.78
210.333	19.78
210.726	17.78
211.12	20.78
211.513	15.78
211.906	19.78
212.3	22.78
212.693	19.78
213.086	21.78
213.479	15.78
213.873	17.78
214.266	19.78
214.659	21.78
215.052	20.78
215.445	20.78
215.838	22.78
216.231	18.78
216.624	24.78
217.016	24.78
217.409	28.78
217.802	22.78
218.195	22.78
218.588	33.78
218.98	28.78
219.373	24.78
219.766	27.78
220.158	23.78
220.551	28.78
220.943	24.78
221.336	21.78
221.728	30.78
222.121	24.78
222.513	19.78
222.906	23.78
223.298	24.78
223.69	30.78
224.082	26.78
224.475	23.78
224.867	23.78
225.259	27.78
225.651	32.78
226.043	28.78
226.435	28.78
226.827	29.78
227.219	24.78
227.611	23.78
228.003	29.78
228.395	21.78
228.787	24.78
229.179	25.78
229.57	26.78
229.962	33.78
230.354	30.78
230.746	39.78
231.137	31.78
231.529	43.78
231.92	34.78
232.312	31.78
232.703	34.78
233.095	35.78
233.486	30.78
233.878	33.78
234.269	33.78
234.66	28.78
235.052	32.78
235.443	35.78
235.834	33.78
236.225	38.78
236.616	35.78
237.008	31.78
237.399	31.78
237.79	29.78
238.181	36.78
238.572	48.78
238.963	47.78
239.354	44.78
239.744	60.78
240.135	46.78
240.526	40.78
240.917	43.78
241.308	39.78
241.698	37.78
242.089	38.78
242.48	42.78
242.87	49.78
243.261	50.78
243.651	51.78
244.042	49.78
244.432	54.78
244.823	49.78
245.213	57.78
245.603	78.78
245.994	52.78
246.384	61.78
246.774	61.78
247.164	59.78
247.555	63.78
247.945	72.78
248.335	81.78
248.725	84.78
249.115	78.78
249.505	70.78
249.895	61.78
250.285	54.78
250.675	58.78
251.065	60.78
251.454	63.78
251.844	73.78
252.234	72.78
252.624	70.78
253.013	56.78
253.403	59.78
253.793	54.78
254.182	62.78
254.572	83.78
254.961	96.78
255.351	114.78
255.74	96.78
256.13	78.78
256.519	77.78
256.908	80.78
257.298	91.78
257.687	85.78
258.076	82.78
258.465	83.78
258.854	71.78
259.243	60.78
259.633	68.78
260.022	81.78
260.411	97.78
260.8	108.78
261.188	94.78
261.577	91.78
261.966	82.78
262.355	79.78
262.744	72.78
263.133	88.78
263.521	87.78
263.91	70.78
264.299	80.78
264.687	88.78
265.076	108.78
265.464	129.78
265.853	142.78
266.241	130.78
266.63	93.78
267.018	103.78
267.407	105.78
267.795	110.78
268.183	112.78
268.571	85.78
268.96	74.78
269.348	104.78
269.736	141.78
270.124	134.78
270.512	119.78
270.9	116.78
271.288	129.78
271.676	159.78
272.064	180.78
272.452	144.78
272.84	106.78
273.228	67.78
273.616	61.78
274.003	67.78
274.391	81.78
274.779	83.78
275.166	76.78
275.554	78.78
275.941	108.78
276.329	146.78
276.717	153.78
277.104	152.78
277.491	134.78
277.879	114.78
278.266	85.78
278.653	93.78
279.041	111.78
279.428	118.78
279.815	108.78
280.202	118.78
280.589	86.78
280.977	78.78
281.364	74.78
281.751	89.78
282.138	103.78
282.525	121.78
282.912	163.78
283.298	190.78
283.685	137.78
284.072	112.78
284.459	121.78
284.846	121.78
285.232	138.78
285.619	128.78
286.006	125.78
286.392	126.78
286.779	116.78
287.165	117.78
287.552	154.78
287.938	175.78
288.325	147.78
288.711	85.78
289.097	119.78
289.484	151.78
289.87	137.78
290.256	91.78
290.642	85.78
291.028	111.78
291.414	107.78
291.801	104.78
292.187	116.78
292.573	100.78
292.959	115.78
293.344	136.78
293.73	184.78
294.116	237.78
294.502	288.78
294.888	228.78
295.274	115.78
295.659	81.78
296.045	92.78
296.431	100.78
296.816	115.78
297.202	109.78
297.587	133.78
297.973	140.78
298.358	116.78
298.744	108.78
299.129	133.78
299.514	135.78
299.9	114.78
300.285	80.78
300.67	102.78
301.055	153.78
301.44	179.78
301.825	190.78
302.211	185.78
302.596	156.78
302.981	121.78
303.366	103.78
303.75	124.78
304.135	169.78
304.52	201.78
304.905	207.78
305.29	151.78
305.675	85.78
306.059	74.78
306.444	103.78
306.829	93.78
307.213	101.78
307.598	108.78
307.982	103.78
308.367	87.78
308.751	88.78
309.135	105.78
309.52	105.78
309.904	94.78
310.288	98.78
310.673	111.78
311.057	110.78
311.441	106.78
311.825	113.78
312.209	91.78
312.593	86.78
312.977	101.78
313.361	92.78
313.745	100.78
314.129	114.78
314.513	126.78
314.897	109.78
315.281	105.78
315.665	112.78
316.048	119.78
316.432	137.78
316.816	132.78
317.199	122.78
317.583	155.78
317.966	160.78
318.35	145.78
318.733	131.78
319.117	123.78
319.5	143.78
319.884	170.78
320.267	187.78
320.65	220.78
321.033	237.78
321.417	246.78
321.8	225.78
322.183	134.78
322.566	119.78
322.949	124.78
323.332	142.78
323.715	133.78
324.098	151.78
324.481	190.78
324.864	179.78
325.246	166.78
325.629	142.78
326.012	137.78
326.395	143.78
326.777	146.78
327.16	142.78
327.543	134.78
327.925	142.78
328.308	125.78
328.69	119.78
329.073	131.78
329.455	159.78
329.837	194.78
330.22	192.78
330.602	159.78
330.984	152.78
331.366	182.78
331.748	141.78
332.131	159.78
332.513	171.78
332.895	186.78
333.277	163.78
333.659	166.78
334.041	199.78
334.423	182.78
334.804	151.78
335.186	123.78
335.568	134.78
335.95	142.78
336.332	132.78
336.713	146.78
337.095	185.78
337.476	192.78
337.858	175.78
338.239	133.78
338.621	121.78
339.002	112.78
339.384	115.78
339.765	125.78
340.146	142.78
340.528	143.78
340.909	156.78
341.29	163.78
341.671	139.78
342.053	133.78
342.434	127.78
342.815	128.78
343.196	129.78
343.577	118.78
343.958	134.78
344.338	139.78
344.719	139.78
345.1	127.78
345.481	138.78
345.862	129.78
346.242	120.78
346.623	102.78
347.004	105.78
347.384	107.78
347.765	125.78
348.145	135.78
348.526	128.78
348.906	152.78
349.287	171.78
349.667	160.78
350.047	132.78
350.428	126.78
350.808	148.78
351.188	145.78
351.568	119.78
351.948	109.78
352.328	129.78
352.708	128.78
353.088	143.78
353.468	141.78
353.848	170.78
354.228	199.78
354.608	190.78
354.988	167.78
355.368	141.78
355.747	125.78
356.127	131.78
356.507	170.78
356.886	226.78
357.266	229.78
357.645	192.78
358.025	143.78
358.404	137.78
358.784	157.78
359.163	178.78
359.542	170.78
359.922	133.78
360.301	165.78
360.68	192.78
361.059	286.78
361.439	400.78
361.818	394.78
362.197	281.78
362.576	194.78
362.955	186.78
363.334	189.78
363.713	193.78
364.091	220.78
364.47	196.78
364.849	159.78
365.228	157.78
365.606	151.78
365.985	158.78
366.364	129.78
366.742	125.78
367.121	143.78
367.499	169.78
367.878	221.78
368.256	239.78
368.635	235.78
369.013	196.78
369.391	159.78
369.77	146.78
370.148	200.78
370.526	265.78
370.904	264.78
371.282	225.78
371.66	190.78
372.038	162.78
372.416	129.78
372.794	121.78
373.172	140.78
373.55	138.78
373.928	153.78
374.306	153.78
374.683	161.78
375.061	196.78
375.439	271.78
375.816	325.78
376.194	351.78
376.572	365.78
376.949	344.78
377.327	351.78
377.704	351.78
378.081	332.78
378.459	277.78
378.836	231.78
379.213	222.78
379.591	218.78
379.968	221.78
380.345	234.78
380.722	294.78
381.099	353.78
381.476	423.78
381.853	398.78
382.23	347.78
382.607	307.78
382.984	396.78
383.361	468.78
383.738	495.78
384.114	467.78
384.491	457.78
384.868	422.78
385.244	362.78
385.621	353.78
385.997	417.78
386.374	543.78
386.75	648.78
387.127	585.78
387.503	498.78
387.88	468.78
388.256	401.78
388.632	293.78
389.008	209.78
389.385	197.78
389.761	181.78
390.137	181.78
390.513	168.78
390.889	154.78
391.265	129.78
391.641	139.78
392.017	147.78
392.393	183.78
392.768	276.78
393.144	364.78
393.52	384.78
393.896	315.78
394.271	237.78
394.647	237.78
395.022	285.78
395.398	284.78
395.773	241.78
396.149	291.78
396.524	323.78
396.9	323.78
397.275	270.78
397.65	274.78
398.026	292.78
398.401	278.78
398.776	255.78
399.151	239.78
399.526	251.78
399.901	307.78
400.276	561.78
400.651	937.78
401.026	1104.78
401.401	956.78
401.776	637.78
402.151	404.78
402.525	270.78
402.9	225.78
403.275	248.78
403.649	288.78
404.024	383.78
404.399	422.78
404.773	412.78
405.148	281.78
405.522	209.78
405.896	237.78
406.271	345.78
406.645	622.78
407.019	995.78
407.393	1077.78
407.768	848.78
408.142	510.78
408.516	360.78
408.89	271.78
409.264	246.78
409.638	348.78
410.012	414.78
410.386	473.78
410.76	362.78
411.133	317.78
411.507	304.78
411.881	281.78
412.255	274.78
412.628	263.78
413.002	267.78
413.375	327.78
413.749	363.78
414.122	329.78
414.496	284.78
414.869	234.78
415.243	218.78
415.616	213.78
415.989	205.78
416.363	220.78
416.736	294.78
417.109	341.78
417.482	283.78
417.855	241.78
418.228	217.78
418.601	160.78
418.974	153.78
419.347	151.78
419.72	175.78
420.093	197.78
420.465	230.78
420.838	217.78
421.211	208.78
421.583	221.78
421.956	238.78
422.329	233.78
422.701	234.78
423.074	214.78
423.446	236.78
423.818	295.78
424.191	363.78
424.563	359.78
424.935	268.78
425.308	270.78
425.68	332.78
426.052	378.78
426.424	501.78
426.796	617.78
427.168	639.78
427.54	531.78
427.912	443.78
428.284	361.78
428.656	451.78
429.028	852.78
429.399	1095.78
429.771	1141.78
430.143	1002.78
430.514	784.78
430.886	526.78
431.258	353.78
431.629	236.78
432.001	210.78
432.372	171.78
432.743	203.78
433.115	196.78
433.486	185.78
433.857	188.78
434.229	209.78
434.6	238.78
434.971	242.78
435.342	200.78
435.713	209.78
436.084	217.78
436.455	213.78
436.826	193.78
437.197	190.78
437.568	187.78
437.939	184.78
438.309	176.78
438.68	175.78
439.051	160.78
439.421	160.78
439.792	154.78
440.163	177.78
440.533	186.78
440.903	216.78
441.274	199.78
441.644	201.78
442.015	204.78
442.385	206.78
442.755	187.78
443.125	186.78
443.496	201.78
443.866	186.78
444.236	187.78
444.606	164.78
444.976	169.78
445.346	198.78
445.716	178.78
446.085	204.78
446.455	202.78
446.825	195.78
447.195	173.78
447.565	175.78
447.934	223.78
448.304	235.78
448.673	259.78
449.043	212.78
449.412	197.78
449.782	178.78
450.151	166.78
450.521	174.78
450.89	174.78
451.259	189.78
451.628	164.78
451.998	143.78
452.367	136.78
452.736	132.78
453.105	158.78
453.474	157.78
453.843	178.78
454.212	183.78
454.581	205.78
454.95	187.78
455.318	180.78
455.687	170.78
456.056	159.78
456.424	152.78
456.793	165.78
457.162	151.78
457.53	139.78
457.899	157.78
458.267	150.78
458.636	172.78
459.004	186.78
459.372	217.78
459.741	195.78
460.109	201.78
460.477	178.78
460.845	202.78
461.213	204.78
461.581	171.78
461.949	146.78
462.317	150.78
462.685	139.78
463.053	134.78
463.421	145.78
463.789	161.78
464.157	163.78
464.524	176.78
464.892	156.78
465.26	234.78
465.627	328.78
465.995	356.78
466.362	286.78
466.73	222.78
467.097	221.78
467.464	290.78
467.832	363.78
468.199	377.78
468.566	286.78
468.933	232.78
469.301	230.78
469.668	215.78
470.035	173.78
470.402	163.78
470.769	160.78
471.136	152.78
471.503	153.78
471.869	159.78
472.236	157.78
472.603	148.78
472.97	139.78
473.336	128.78
473.703	122.78
474.07	127.78
474.436	137.78
474.803	146.78
475.169	172.78
475.536	201.78
475.902	205.78
476.268	164.78
476.635	157.78
477.001	161.78
477.367	140.78
477.733	130.78
478.099	139.78
478.465	138.78
478.831	124.78
479.197	130.78
479.563	150.78
479.929	173.78
480.295	171.78
480.661	151.78
481.026	167.78
481.392	160.78
481.758	161.78
482.123	167.78
482.489	140.78
482.855	145.78
483.22	170.78
483.585	235.78
483.951	425.78
484.316	550.78
484.682	524.78
485.047	358.78
485.412	292.78
485.777	240.78
486.142	220.78
486.507	183.78
486.873	178.78
487.238	171.78
487.602	178.78
487.967	231.78
488.332	338.78
488.697	427.78
489.062	395.78
489.427	294.78
489.791	254.78
490.156	229.78
490.521	208.78
490.885	212.78
491.25	198.78
491.614	186.78
491.979	179.78
492.343	177.78
492.707	197.78
493.072	195.78
493.436	183.78
493.8	179.78
494.164	176.78
494.528	161.78
494.892	160.78
495.256	180.78
495.62	179.78
495.984	173.78
496.348	176.78
496.712	174.78
497.076	183.78
497.44	221.78
497.803	313.78
498.167	379.78
498.531	394.78
498.894	313.78
499.258	277.78
499.621	266.78
499.985	351.78
500.348	473.78
500.711	556.78
501.075	529.78
501.438	512.78
501.801	467.78
502.164	334.78
502.527	283.78
502.891	239.78
503.254	221.78
503.617	204.78
503.98	206.78
504.342	247.78
504.705	418.78
505.068	754.78
505.431	834.78
505.794	669.78
506.156	490.78
506.519	505.78
506.882	562.78
507.244	538.78
507.607	398.78
507.969	286.78
508.331	239.78
508.694	218.78
509.056	198.78
509.418	171.78
509.781	166.78
510.143	169.78
510.505	177.78
510.867	188.78
511.229	177.78
511.591	158.78
511.953	169.78
512.315	163.78
512.677	178.78
513.039	173.78
513.401	177.78
513.762	171.78
514.124	168.78
514.486	169.78
514.847	174.78
515.209	168.78
515.57	164.78
515.932	158.78
516.293	144.78
516.654	138.78
517.016	134.78
517.377	137.78
517.738	147.78
518.1	146.78
518.461	151.78
518.822	165.78
519.183	165.78
519.544	179.78
519.905	198.78
520.266	226.78
520.627	241.78
520.987	240.78
521.348	232.78
521.709	286.78
522.07	449.78
522.43	508.78
522.791	474.78
523.151	341.78
523.512	280.78
523.872	261.78
524.233	256.78
524.593	219.78
524.953	205.78
525.314	207.78
525.674	210.78
526.034	202.78
526.394	182.78
526.754	173.78
527.114	185.78
527.474	175.78
527.834	175.78
528.194	139.78
528.554	156.78
528.914	141.78
529.274	129.78
529.634	140.78
529.993	124.78
530.353	131.78
530.712	134.78
531.072	122.78
531.431	140.78
531.791	137.78
532.15	145.78
532.51	146.78
532.869	125.78
533.228	127.78
533.587	141.78
533.947	143.78
534.306	150.78
534.665	174.78
535.024	191.78
535.383	173.78
535.742	178.78
536.101	151.78
536.46	149.78
536.818	143.78
537.177	158.78
537.536	148.78
537.895	144.78
538.253	132.78
538.612	131.78
538.97	140.78
539.329	148.78
539.687	136.78
540.046	129.78
540.404	128.78
540.762	121.78
541.12	116.78
541.479	124.78
541.837	118.78
542.195	138.78
542.553	121.78
542.911	145.78
543.269	145.78
543.627	154.78
543.985	148.78
544.343	140.78
544.7	130.78
545.058	123.78
545.416	127.78
545.774	119.78
546.131	118.78
546.489	118.78
546.846	118.78
547.204	128.78
547.561	133.78
547.918	131.78
548.276	133.78
548.633	155.78
548.99	176.78
549.347	196.78
549.705	178.78
550.062	165.78
550.419	175.78
550.776	187.78
551.133	270.78
551.49	311.78
551.846	264.78
552.203	194.78
552.56	168.78
552.917	141.78
553.273	138.78
553.63	140.78
553.987	125.78
554.343	109.78
554.7	105.78
555.056	110.78
555.412	99.78
555.769	110.78
556.125	107.78
556.481	105.78
556.837	104.78
557.194	96.78
557.55	100.78
557.906	95.78
558.262	97.78
558.618	92.78
558.974	87.78
559.329	99.78
559.685	89.78
560.041	97.78
560.397	106.78
560.752	100.78
561.108	112.78
561.464	107.78
561.819	100.78
562.175	94.78
562.53	107.78
562.886	111.78
563.241	109.78
563.596	115.78
563.951	122.78
564.307	124.78
564.662	144.78
565.017	155.78
565.372	136.78
565.727	129.78
566.082	124.78
566.437	126.78
566.792	123.78
567.147	123.78
567.501	130.78
567.856	116.78
568.211	106.78
568.565	90.78
568.92	93.78
569.275	91.78
569.629	95.78
569.984	92.78
570.338	81.78
570.692	89.78
571.047	80.78
571.401	83.78
571.755	89.78
572.109	85.78
572.463	85.78
572.817	93.78
573.171	122.78
573.525	130.78
573.879	131.78
574.233	117.78
574.587	101.78
574.941	103.78
575.295	99.78
575.648	89.78
576.002	81.78
576.355	89.78
576.709	76.78
577.062	90.78
577.416	77.78
577.769	74.78
578.123	74.78
578.476	71.78
578.829	81.78
579.182	81.78
579.536	99.78
579.889	105.78
580.242	118.78
580.595	133.78
580.948	115.78
581.301	92.78
581.654	95.78
582.006	83.78
582.359	85.78
582.712	83.78
583.065	78.78
583.417	85.78
583.77	72.78
584.122	76.78
584.475	81.78
584.827	88.78
585.18	84.78
585.532	83.78
585.884	83.78
586.237	93.78
586.589	79.78
586.941	79.78
587.293	77.78
587.645	81.78
587.997	81.78
588.349	132.78
588.701	213.78
589.053	304.78
589.405	320.78
589.756	272.78
590.108	206.78
590.46	165.78
590.811	134.78
591.163	115.78
591.514	119.78
591.866	87.78
592.217	86.78
592.569	83.78
592.92	71.78
593.271	66.78
593.623	58.78
593.974	81.78
594.325	75.78
594.676	76.78
595.027	87.78
595.378	81.78
595.729	79.78
596.08	83.78
596.431	92.78
596.781	72.78
597.132	76.78
597.483	75.78
597.833	66.78
598.184	65.78
598.535	72.78
598.885	81.78
599.236	57.78
599.586	61.78
599.936	61.78
600.287	53.78
600.637	61.78
600.987	72.78
601.337	71.78
601.687	64.78
602.037	71.78
602.387	67.78
602.737	66.78
603.087	59.78
603.437	63.78
603.787	57.78
604.137	61.78
604.487	64.78
604.836	63.78
605.186	58.78
605.535	61.78
605.885	56.78
606.234	55.78
606.584	62.78
606.933	47.78
607.283	55.78
607.632	46.78
607.981	48.78
608.33	48.78
608.679	49.78
609.028	53.78
609.377	50.78
609.726	48.78
610.075	50.78
610.424	57.78
610.773	51.78
611.122	53.78
611.471	51.78
611.819	50.78
612.168	54.78
612.517	58.78
612.865	56.78
613.214	54.78
613.562	49.78
613.91	56.78
614.259	55.78
614.607	53.78
614.955	61.78
615.304	52.78
615.652	58.78
616	50.78
616.348	57.78
616.696	47.78
617.044	45.78
617.392	52.78
617.739	42.78
618.087	54.78
618.435	47.78
618.783	52.78
619.13	50.78
619.478	56.78
619.826	49.78
620.173	48.78
620.521	45.78
620.868	45.78
621.215	44.78
621.563	50.78
621.91	48.78
622.257	46.78
622.604	47.78
622.951	45.78
623.298	46.78
623.645	42.78
623.992	48.78
624.339	41.78
624.686	50.78
625.033	46.78
625.38	47.78
625.726	57.78
626.073	44.78
626.42	49.78
626.766	50.78
627.113	45.78
627.459	42.78
627.806	48.78
628.152	61.78
628.498	47.78
628.844	64.78
629.191	59.78
629.537	56.78
629.883	52.78
630.229	51.78
630.575	51.78
630.921	54.78
631.267	47.78
631.613	49.78
631.959	49.78
632.304	41.78
632.65	50.78
632.996	42.78
633.341	46.78
633.687	46.78
634.032	54.78
634.378	40.78
634.723	40.78
635.069	45.78
635.414	42.78
635.759	46.78
636.104	49.78
636.45	41.78
636.795	46.78
637.14	39.78
637.485	50.78
637.83	40.78
638.175	49.78
638.519	49.78
638.864	41.78
639.209	43.78
639.554	59.78
639.898	48.78
640.243	50.78
640.587	49.78
640.932	42.78
641.276	43.78
641.621	32.78
641.965	49.78
642.309	49.78
642.654	41.78
642.998	51.78
643.342	41.78
643.686	48.78
644.03	46.78
644.374	49.78
644.718	56.78
645.062	48.78
645.406	45.78
645.75	43.78
646.093	44.78
646.437	40.78
646.781	46.78
647.124	38.78
647.468	40.78
647.811	41.78
648.155	40.78
648.498	42.78
648.842	41.78
649.185	38.78
649.528	39.78
649.871	37.78
650.214	43.78
650.558	40.78
650.901	38.78
651.244	47.78
651.586	36.78
651.929	40.78
