Data from Cr-100ng_USB2E8911_002.txt Node
Date: Tue May 14 16:40:01 PDT 2019
User: admin
Spectrometer: USB2E891
Trigger mode: 1
Integration Time (sec): 1.000000E-1
Scans to average: 1
Electric dark correction enabled: true
Nonlinearity correction enabled: false
Boxcar width: 0
XAxis mode: Wavelengths
Number of Pixels in Spectrum: 2048
>>>>>Begin Spectral Data<<<<<
183.106	-231.28
183.502	8.72
183.898	2.72
184.293	9.72
184.689	12.72
185.085	12.72
185.48	14.72
185.876	10.72
186.271	9.72
186.667	16.72
187.062	19.72
187.457	17.72
187.853	13.72
188.248	19.72
188.643	14.72
189.039	13.72
189.434	19.72
189.829	13.72
190.224	9.72
190.619	8.72
191.014	15.72
191.409	14.72
191.805	8.72
192.199	19.72
192.594	12.72
192.989	13.72
193.384	16.72
193.779	16.72
194.174	13.72
194.569	12.72
194.964	19.72
195.358	20.72
195.753	16.72
196.148	16.72
196.542	19.72
196.937	19.72
197.331	18.72
197.726	19.72
198.12	16.72
198.515	20.72
198.909	19.72
199.304	20.72
199.698	20.72
200.092	17.72
200.487	22.72
200.881	16.72
201.275	17.72
201.669	18.72
202.063	18.72
202.458	22.72
202.852	15.72
203.246	17.72
203.64	18.72
204.034	23.72
204.428	22.72
204.822	18.72
205.216	20.72
205.609	22.72
206.003	17.72
206.397	20.72
206.791	23.72
207.184	23.72
207.578	23.72
207.972	15.72
208.365	17.72
208.759	21.72
209.153	19.72
209.546	24.72
209.94	15.72
210.333	26.72
210.726	22.72
211.12	25.72
211.513	22.72
211.906	24.72
212.3	19.72
212.693	26.72
213.086	19.72
213.479	17.72
213.873	20.72
214.266	26.72
214.659	20.72
215.052	22.72
215.445	19.72
215.838	22.72
216.231	25.72
216.624	21.72
217.016	24.72
217.409	20.72
217.802	26.72
218.195	20.72
218.588	25.72
218.98	19.72
219.373	24.72
219.766	20.72
220.158	20.72
220.551	17.72
220.943	19.72
221.336	19.72
221.728	25.72
222.121	22.72
222.513	28.72
222.906	22.72
223.298	25.72
223.69	24.72
224.082	30.72
224.475	31.72
224.867	31.72
225.259	29.72
225.651	32.72
226.043	28.72
226.435	31.72
226.827	26.72
227.219	30.72
227.611	30.72
228.003	23.72
228.395	24.72
228.787	26.72
229.179	32.72
229.57	27.72
229.962	26.72
230.354	32.72
230.746	28.72
231.137	34.72
231.529	27.72
231.92	34.72
232.312	32.72
232.703	36.72
233.095	34.72
233.486	28.72
233.878	28.72
234.269	30.72
234.66	32.72
235.052	29.72
235.443	30.72
235.834	37.72
236.225	31.72
236.616	31.72
237.008	38.72
237.399	36.72
237.79	35.72
238.181	38.72
238.572	37.72
238.963	37.72
239.354	46.72
239.744	57.72
240.135	52.72
240.526	42.72
240.917	44.72
241.308	44.72
241.698	41.72
242.089	39.72
242.48	37.72
242.87	41.72
243.261	51.72
243.651	56.72
244.042	41.72
244.432	42.72
244.823	56.72
245.213	62.72
245.603	63.72
245.994	72.72
246.384	61.72
246.774	59.72
247.164	55.72
247.555	57.72
247.945	64.72
248.335	82.72
248.725	91.72
249.115	72.72
249.505	61.72
249.895	62.72
250.285	59.72
250.675	58.72
251.065	55.72
251.454	67.72
251.844	79.72
252.234	72.72
252.624	70.72
253.013	65.72
253.403	56.72
253.793	57.72
254.182	71.72
254.572	84.72
254.961	96.72
255.351	119.72
255.74	99.72
256.13	70.72
256.519	74.72
256.908	89.72
257.298	86.72
257.687	93.72
258.076	92.72
258.465	77.72
258.854	62.72
259.243	62.72
259.633	73.72
260.022	74.72
260.411	109.72
260.8	113.72
261.188	105.72
261.577	86.72
261.966	83.72
262.355	81.72
262.744	79.72
263.133	93.72
263.521	86.72
263.91	72.72
264.299	79.72
264.687	96.72
265.076	120.72
265.464	135.72
265.853	145.72
266.241	123.72
266.63	116.72
267.018	114.72
267.407	117.72
267.795	126.72
268.183	110.72
268.571	100.72
268.96	87.72
269.348	111.72
269.736	146.72
270.124	147.72
270.512	112.72
270.9	113.72
271.288	120.72
271.676	160.72
272.064	175.72
272.452	146.72
272.84	103.72
273.228	72.72
273.616	57.72
274.003	67.72
274.391	81.72
274.779	91.72
275.166	88.72
275.554	87.72
275.941	116.72
276.329	162.72
276.717	172.72
277.104	171.72
277.491	148.72
277.879	127.72
278.266	92.72
278.653	102.72
279.041	125.72
279.428	124.72
279.815	136.72
280.202	123.72
280.589	103.72
280.977	80.72
281.364	79.72
281.751	104.72
282.138	112.72
282.525	130.72
282.912	183.72
283.298	203.72
283.685	187.72
284.072	150.72
284.459	171.72
284.846	167.72
285.232	154.72
285.619	157.72
286.006	152.72
286.392	156.72
286.779	136.72
287.165	145.72
287.552	184.72
287.938	188.72
288.325	159.72
288.711	102.72
289.097	126.72
289.484	159.72
289.87	142.72
290.256	100.72
290.642	112.72
291.028	116.72
291.414	118.72
291.801	119.72
292.187	126.72
292.573	114.72
292.959	125.72
293.344	162.72
293.73	185.72
294.116	252.72
294.502	281.72
294.888	223.72
295.274	127.72
295.659	89.72
296.045	99.72
296.431	126.72
296.816	119.72
297.202	127.72
297.587	160.72
297.973	155.72
298.358	137.72
298.744	130.72
299.129	144.72
299.514	147.72
299.9	128.72
300.285	91.72
300.67	127.72
301.055	170.72
301.44	226.72
301.825	241.72
302.211	215.72
302.596	180.72
302.981	136.72
303.366	112.72
303.75	151.72
304.135	193.72
304.52	221.72
304.905	209.72
305.29	160.72
305.675	90.72
306.059	85.72
306.444	102.72
306.829	100.72
307.213	114.72
307.598	110.72
307.982	109.72
308.367	101.72
308.751	123.72
309.135	120.72
309.52	110.72
309.904	99.72
310.288	111.72
310.673	122.72
311.057	120.72
311.441	123.72
311.825	129.72
312.209	122.72
312.593	115.72
312.977	104.72
313.361	116.72
313.745	119.72
314.129	112.72
314.513	119.72
314.897	122.72
315.281	120.72
315.665	121.72
316.048	133.72
316.432	140.72
316.816	140.72
317.199	139.72
317.583	175.72
317.966	190.72
318.35	157.72
318.733	147.72
319.117	149.72
319.5	162.72
319.884	189.72
320.267	208.72
320.65	248.72
321.033	267.72
321.417	270.72
321.8	240.72
322.183	163.72
322.566	139.72
322.949	145.72
323.332	156.72
323.715	160.72
324.098	176.72
324.481	246.72
324.864	241.72
325.246	207.72
325.629	158.72
326.012	150.72
326.395	174.72
326.777	187.72
327.16	177.72
327.543	167.72
327.925	152.72
328.308	127.72
328.69	143.72
329.073	149.72
329.455	186.72
329.837	227.72
330.22	228.72
330.602	200.72
330.984	183.72
331.366	213.72
331.748	173.72
332.131	185.72
332.513	212.72
332.895	227.72
333.277	238.72
333.659	247.72
334.041	261.72
334.423	228.72
334.804	176.72
335.186	145.72
335.568	146.72
335.95	153.72
336.332	154.72
336.713	171.72
337.095	207.72
337.476	234.72
337.858	211.72
338.239	173.72
338.621	147.72
339.002	121.72
339.384	138.72
339.765	149.72
340.146	153.72
340.528	147.72
340.909	185.72
341.29	177.72
341.671	167.72
342.053	144.72
342.434	152.72
342.815	158.72
343.196	136.72
343.577	142.72
343.958	148.72
344.338	150.72
344.719	163.72
345.1	155.72
345.481	147.72
345.862	145.72
346.242	150.72
346.623	130.72
347.004	120.72
347.384	132.72
347.765	144.72
348.145	159.72
348.526	158.72
348.906	170.72
349.287	203.72
349.667	185.72
350.047	147.72
350.428	154.72
350.808	174.72
351.188	166.72
351.568	130.72
351.948	160.72
352.328	153.72
352.708	165.72
353.088	169.72
353.468	169.72
353.848	202.72
354.228	242.72
354.608	230.72
354.988	204.72
355.368	170.72
355.747	145.72
356.127	158.72
356.507	208.72
356.886	263.72
357.266	311.72
357.645	300.72
358.025	272.72
358.404	219.72
358.784	256.72
359.163	285.72
359.542	264.72
359.922	238.72
360.301	242.72
360.68	285.72
361.059	358.72
361.439	457.72
361.818	451.72
362.197	335.72
362.576	244.72
362.955	225.72
363.334	234.72
363.713	249.72
364.091	255.72
364.47	250.72
364.849	195.72
365.228	182.72
365.606	182.72
365.985	183.72
366.364	167.72
366.742	148.72
367.121	178.72
367.499	200.72
367.878	253.72
368.256	305.72
368.635	268.72
369.013	222.72
369.391	184.72
369.77	192.72
370.148	244.72
370.526	316.72
370.904	319.72
371.282	276.72
371.66	224.72
372.038	195.72
372.416	172.72
372.794	169.72
373.172	173.72
373.55	168.72
373.928	187.72
374.306	185.72
374.683	211.72
375.061	252.72
375.439	374.72
375.816	472.72
376.194	485.72
376.572	461.72
376.949	457.72
377.327	433.72
377.704	443.72
378.081	426.72
378.459	392.72
378.836	400.72
379.213	391.72
379.591	394.72
379.968	335.72
380.345	344.72
380.722	377.72
381.099	463.72
381.476	535.72
381.853	510.72
382.23	445.72
382.607	409.72
382.984	534.72
383.361	612.72
383.738	652.72
384.114	623.72
384.491	619.72
384.868	627.72
385.244	535.72
385.621	507.72
385.997	584.72
386.374	755.72
386.75	909.72
387.127	831.72
387.503	699.72
387.88	648.72
388.256	575.72
388.632	450.72
389.008	315.72
389.385	256.72
389.761	228.72
390.137	217.72
390.513	202.72
390.889	208.72
391.265	192.72
391.641	218.72
392.017	234.72
392.393	294.72
392.768	458.72
393.144	588.72
393.52	598.72
393.896	471.72
394.271	390.72
394.647	427.72
395.022	469.72
395.398	414.72
395.773	359.72
396.149	383.72
396.524	473.72
396.9	464.72
397.275	397.72
397.65	363.72
398.026	397.72
398.401	425.72
398.776	385.72
399.151	393.72
399.526	392.72
399.901	457.72
400.276	690.72
400.651	1054.72
401.026	1214.72
401.401	1078.72
401.776	736.72
402.151	483.72
402.525	342.72
402.9	327.72
403.275	354.72
403.649	408.72
404.024	529.72
404.399	612.72
404.773	543.72
405.148	383.72
405.522	297.72
405.896	306.72
406.271	451.72
406.645	788.72
407.019	1238.72
407.393	1335.72
407.768	1076.72
408.142	696.72
408.516	518.72
408.89	412.72
409.264	356.72
409.638	437.72
410.012	553.72
410.386	583.72
410.76	464.72
411.133	397.72
411.507	410.72
411.881	418.72
412.255	433.72
412.628	410.72
413.002	384.72
413.375	449.72
413.749	491.72
414.122	453.72
414.496	395.72
414.869	353.72
415.243	317.72
415.616	293.72
415.989	273.72
416.363	294.72
416.736	377.72
417.109	410.72
417.482	366.72
417.855	315.72
418.228	293.72
418.601	238.72
418.974	225.72
419.347	236.72
419.72	256.72
420.093	287.72
420.465	304.72
420.838	294.72
421.211	276.72
421.583	307.72
421.956	305.72
422.329	329.72
422.701	321.72
423.074	290.72
423.446	342.72
423.818	410.72
424.191	492.72
424.563	477.72
424.935	386.72
425.308	412.72
425.68	474.72
426.052	552.72
426.424	700.72
426.796	866.72
427.168	885.72
427.54	753.72
427.912	637.72
428.284	509.72
428.656	631.72
429.028	1098.72
429.399	1363.72
429.771	1442.72
430.143	1246.72
430.514	991.72
430.886	655.72
431.258	455.72
431.629	325.72
432.001	271.72
432.372	241.72
432.743	306.72
433.115	312.72
433.486	313.72
433.857	286.72
434.229	303.72
434.6	314.72
434.971	322.72
435.342	287.72
435.713	280.72
436.084	316.72
436.455	285.72
436.826	284.72
437.197	264.72
437.568	260.72
437.939	265.72
438.309	252.72
438.68	248.72
439.051	222.72
439.421	217.72
439.792	220.72
440.163	229.72
440.533	272.72
440.903	283.72
441.274	281.72
441.644	269.72
442.015	292.72
442.385	294.72
442.755	279.72
443.125	273.72
443.496	273.72
443.866	272.72
444.236	273.72
444.606	240.72
444.976	237.72
445.346	263.72
445.716	240.72
446.085	280.72
446.455	273.72
446.825	266.72
447.195	248.72
447.565	254.72
447.934	295.72
448.304	337.72
448.673	339.72
449.043	306.72
449.412	273.72
449.782	242.72
450.151	240.72
450.521	237.72
450.89	246.72
451.259	239.72
451.628	243.72
451.998	217.72
452.367	224.72
452.736	206.72
453.105	221.72
453.474	234.72
453.843	246.72
454.212	248.72
454.581	276.72
454.95	273.72
455.318	270.72
455.687	274.72
456.056	229.72
456.424	236.72
456.793	237.72
457.162	220.72
457.53	199.72
457.899	196.72
458.267	199.72
458.636	234.72
459.004	258.72
459.372	286.72
459.741	264.72
460.109	275.72
460.477	253.72
460.845	262.72
461.213	278.72
461.581	253.72
461.949	236.72
462.317	194.72
462.685	209.72
463.053	197.72
463.421	209.72
463.789	236.72
464.157	237.72
464.524	239.72
464.892	228.72
465.26	314.72
465.627	452.72
465.995	503.72
466.362	400.72
466.73	324.72
467.097	309.72
467.464	398.72
467.832	508.72
468.199	519.72
468.566	400.72
468.933	326.72
469.301	301.72
469.668	289.72
470.035	252.72
470.402	223.72
470.769	213.72
471.136	227.72
471.503	232.72
471.869	221.72
472.236	224.72
472.603	233.72
472.97	214.72
473.336	195.72
473.703	182.72
474.07	201.72
474.436	209.72
474.803	216.72
475.169	258.72
475.536	297.72
475.902	293.72
476.268	256.72
476.635	228.72
477.001	230.72
477.367	215.72
477.733	191.72
478.099	190.72
478.465	198.72
478.831	187.72
479.197	189.72
479.563	218.72
479.929	224.72
480.295	232.72
480.661	223.72
481.026	247.72
481.392	246.72
481.758	230.72
482.123	234.72
482.489	208.72
482.855	203.72
483.22	254.72
483.585	330.72
483.951	623.72
484.316	766.72
484.682	748.72
485.047	495.72
485.412	420.72
485.777	355.72
486.142	311.72
486.507	277.72
486.873	253.72
487.238	263.72
487.602	260.72
487.967	363.72
488.332	506.72
488.697	621.72
489.062	575.72
489.427	438.72
489.791	391.72
490.156	339.72
490.521	337.72
490.885	313.72
491.25	294.72
491.614	312.72
491.979	321.72
492.343	326.72
492.707	305.72
493.072	316.72
493.436	321.72
493.8	290.72
494.164	268.72
494.528	246.72
494.892	265.72
495.256	263.72
495.62	268.72
495.984	270.72
496.348	267.72
496.712	258.72
497.076	285.72
497.44	332.72
497.803	461.72
498.167	572.72
498.531	582.72
498.894	491.72
499.258	438.72
499.621	413.72
499.985	517.72
500.348	701.72
500.711	788.72
501.075	805.72
501.438	759.72
501.801	671.72
502.164	508.72
502.527	433.72
502.891	354.72
503.254	310.72
503.617	308.72
503.98	306.72
504.342	349.72
504.705	607.72
505.068	1075.72
505.431	1222.72
505.794	993.72
506.156	714.72
506.519	748.72
506.882	808.72
507.244	769.72
507.607	589.72
507.969	435.72
508.331	380.72
508.694	320.72
509.056	296.72
509.418	255.72
509.781	256.72
510.143	272.72
510.505	277.72
510.867	285.72
511.229	274.72
511.591	292.72
511.953	271.72
512.315	272.72
512.677	293.72
513.039	273.72
513.401	283.72
513.762	262.72
514.124	265.72
514.486	253.72
514.847	266.72
515.209	253.72
515.57	239.72
515.932	237.72
516.293	224.72
516.654	221.72
517.016	217.72
517.377	212.72
517.738	234.72
518.1	246.72
518.461	258.72
518.822	269.72
519.183	272.72
519.544	302.72
519.905	308.72
520.266	378.72
520.627	423.72
520.987	425.72
521.348	389.72
521.709	443.72
522.07	663.72
522.43	778.72
522.791	742.72
523.151	530.72
523.512	431.72
523.872	405.72
524.233	381.72
524.593	347.72
524.953	309.72
525.314	320.72
525.674	312.72
526.034	315.72
526.394	297.72
526.754	279.72
527.114	275.72
527.474	269.72
527.834	276.72
528.194	260.72
528.554	232.72
528.914	234.72
529.274	233.72
529.634	224.72
529.993	228.72
530.353	225.72
530.712	210.72
531.072	227.72
531.431	218.72
531.791	235.72
532.15	228.72
532.51	202.72
532.869	209.72
533.228	216.72
533.587	218.72
533.947	222.72
534.306	241.72
534.665	276.72
535.024	294.72
535.383	293.72
535.742	266.72
536.101	236.72
536.46	238.72
536.818	239.72
537.177	246.72
537.536	242.72
537.895	239.72
538.253	235.72
538.612	224.72
538.97	235.72
539.329	220.72
539.687	219.72
540.046	213.72
540.404	201.72
540.762	186.72
541.12	197.72
541.479	206.72
541.837	201.72
542.195	212.72
542.553	208.72
542.911	202.72
543.269	229.72
543.627	240.72
543.985	244.72
544.343	216.72
544.7	203.72
545.058	210.72
545.416	199.72
545.774	197.72
546.131	198.72
546.489	189.72
546.846	191.72
547.204	199.72
547.561	204.72
547.918	213.72
548.276	221.72
548.633	230.72
548.99	279.72
549.347	285.72
549.705	282.72
550.062	265.72
550.419	249.72
550.776	305.72
551.133	427.72
551.49	477.72
551.846	432.72
552.203	328.72
552.56	263.72
552.917	239.72
553.273	235.72
553.63	229.72
553.987	208.72
554.343	187.72
554.7	176.72
555.056	179.72
555.412	170.72
555.769	158.72
556.125	168.72
556.481	165.72
556.837	169.72
557.194	156.72
557.55	156.72
557.906	153.72
558.262	154.72
558.618	156.72
558.974	158.72
559.329	151.72
559.685	165.72
560.041	154.72
560.397	167.72
560.752	168.72
561.108	152.72
561.464	168.72
561.819	163.72
562.175	162.72
562.53	168.72
562.886	175.72
563.241	184.72
563.596	188.72
563.951	176.72
564.307	204.72
564.662	238.72
565.017	230.72
565.372	206.72
565.727	211.72
566.082	203.72
566.437	181.72
566.792	172.72
567.147	189.72
567.501	186.72
567.856	175.72
568.211	165.72
568.565	149.72
568.92	153.72
569.275	142.72
569.629	140.72
569.984	139.72
570.338	134.72
570.692	132.72
571.047	127.72
571.401	136.72
571.755	132.72
572.109	136.72
572.463	130.72
572.817	148.72
573.171	193.72
573.525	197.72
573.879	202.72
574.233	179.72
574.587	173.72
574.941	162.72
575.295	159.72
575.648	146.72
576.002	145.72
576.355	144.72
576.709	122.72
577.062	124.72
577.416	134.72
577.769	120.72
578.123	117.72
578.476	124.72
578.829	133.72
579.182	151.72
579.536	151.72
579.889	167.72
580.242	189.72
580.595	204.72
580.948	165.72
581.301	151.72
581.654	129.72
582.006	124.72
582.359	123.72
582.712	122.72
583.065	123.72
583.417	126.72
583.77	133.72
584.122	130.72
584.475	129.72
584.827	140.72
585.18	142.72
585.532	135.72
585.884	134.72
586.237	146.72
586.589	122.72
586.941	138.72
587.293	135.72
587.645	127.72
587.997	137.72
588.349	187.72
588.701	311.72
589.053	409.72
589.405	453.72
589.756	392.72
590.108	311.72
590.46	238.72
590.811	198.72
591.163	185.72
591.514	160.72
591.866	145.72
592.217	121.72
592.569	119.72
592.92	104.72
593.271	114.72
593.623	111.72
593.974	108.72
594.325	128.72
594.676	128.72
595.027	129.72
595.378	119.72
595.729	114.72
596.08	125.72
596.431	135.72
596.781	128.72
597.132	120.72
597.483	124.72
597.833	119.72
598.184	113.72
598.535	122.72
598.885	113.72
599.236	102.72
599.586	103.72
599.936	102.72
600.287	101.72
600.637	97.72
600.987	104.72
601.337	108.72
601.687	105.72
602.037	111.72
602.387	109.72
602.737	99.72
603.087	100.72
603.437	87.72
603.787	95.72
604.137	97.72
604.487	100.72
604.836	101.72
605.186	85.72
605.535	90.72
605.885	84.72
606.234	86.72
606.584	79.72
606.933	82.72
607.283	90.72
607.632	94.72
607.981	73.72
608.33	87.72
608.679	81.72
609.028	81.72
609.377	81.72
609.726	79.72
610.075	72.72
610.424	75.72
610.773	82.72
611.122	84.72
611.471	83.72
611.819	84.72
612.168	91.72
612.517	88.72
612.865	85.72
613.214	83.72
613.562	80.72
613.91	89.72
614.259	85.72
614.607	78.72
614.955	87.72
615.304	91.72
615.652	87.72
616	90.72
616.348	79.72
616.696	90.72
617.044	76.72
617.392	76.72
617.739	77.72
618.087	71.72
618.435	72.72
618.783	79.72
619.13	72.72
619.478	67.72
619.826	66.72
620.173	79.72
620.521	62.72
620.868	68.72
621.215	69.72
621.563	69.72
621.91	74.72
622.257	70.72
622.604	73.72
622.951	71.72
623.298	66.72
623.645	71.72
623.992	73.72
624.339	73.72
624.686	76.72
625.033	73.72
625.38	69.72
625.726	77.72
626.073	75.72
626.42	77.72
626.766	74.72
627.113	70.72
627.459	70.72
627.806	71.72
628.152	80.72
628.498	78.72
628.844	93.72
629.191	82.72
629.537	84.72
629.883	80.72
630.229	81.72
630.575	75.72
630.921	82.72
631.267	77.72
631.613	79.72
631.959	75.72
632.304	70.72
632.65	67.72
632.996	71.72
633.341	75.72
633.687	66.72
634.032	62.72
634.378	68.72
634.723	67.72
635.069	73.72
635.414	78.72
635.759	71.72
636.104	71.72
636.45	74.72
636.795	61.72
637.14	78.72
637.485	73.72
637.83	75.72
638.175	68.72
638.519	65.72
638.864	74.72
639.209	73.72
639.554	71.72
639.898	67.72
640.243	67.72
640.587	72.72
640.932	73.72
641.276	65.72
641.621	72.72
641.965	68.72
642.309	64.72
642.654	53.72
642.998	53.72
643.342	69.72
643.686	65.72
644.03	69.72
644.374	72.72
644.718	73.72
645.062	73.72
645.406	68.72
645.75	69.72
646.093	76.72
646.437	66.72
646.781	67.72
647.124	64.72
647.468	66.72
647.811	61.72
648.155	63.72
648.498	59.72
648.842	69.72
649.185	62.72
